#  E (eV)   dos(E)     Int dos(E) EFermi =   -1.163 eV
 -20.686  0.0000E+00  0.0000E+00
 -20.676  0.3097E-01  0.1548E-03
 -20.666  0.6193E-01  0.6193E-03
 -20.656  0.9290E-01  0.1394E-02
 -20.646  0.1239E+00  0.2477E-02
 -20.636  0.1548E+00  0.3871E-02
 -20.626  0.1858E+00  0.5574E-02
 -20.616  0.2168E+00  0.7587E-02
 -20.606  0.2477E+00  0.9909E-02
 -20.596  0.2787E+00  0.1254E-01
 -20.586  0.3097E+00  0.1548E-01
 -20.576  0.3406E+00  0.1873E-01
 -20.566  0.3716E+00  0.2230E-01
 -20.556  0.4026E+00  0.2617E-01
 -20.546  0.4335E+00  0.3035E-01
 -20.536  0.4645E+00  0.3484E-01
 -20.526  0.4955E+00  0.3964E-01
 -20.516  0.2562E+00  0.4319E-01
 -20.506  0.2589E+00  0.4576E-01
 -20.496  0.2615E+00  0.4837E-01
 -20.486  0.2641E+00  0.5099E-01
 -20.476  0.2667E+00  0.5365E-01
 -20.466  0.2693E+00  0.5633E-01
 -20.456  0.2719E+00  0.5903E-01
 -20.446  0.2745E+00  0.6176E-01
 -20.436  0.2771E+00  0.6452E-01
 -20.426  0.2797E+00  0.6731E-01
 -20.416  0.2823E+00  0.7011E-01
 -20.406  0.2849E+00  0.7295E-01
 -20.396  0.2875E+00  0.7581E-01
 -20.386  0.2901E+00  0.7870E-01
 -20.376  0.2927E+00  0.8161E-01
 -20.366  0.2953E+00  0.8455E-01
 -20.356  0.2979E+00  0.8752E-01
 -20.346  0.3005E+00  0.9051E-01
 -20.336  0.3031E+00  0.9353E-01
 -20.326  0.3057E+00  0.9658E-01
 -20.316  0.3083E+00  0.9965E-01
 -20.306  0.3109E+00  0.1027E+00
 -20.296  0.3135E+00  0.1059E+00
 -20.286  0.3161E+00  0.1090E+00
 -20.276  0.3187E+00  0.1122E+00
 -20.266  0.3213E+00  0.1154E+00
 -20.256  0.3240E+00  0.1186E+00
 -20.246  0.3266E+00  0.1219E+00
 -20.236  0.3292E+00  0.1251E+00
 -20.226  0.3318E+00  0.1284E+00
 -20.216  0.3344E+00  0.1318E+00
 -20.206  0.3370E+00  0.1351E+00
 -20.196  0.3396E+00  0.1385E+00
 -20.186  0.3371E+00  0.1419E+00
 -20.176  0.3340E+00  0.1453E+00
 -20.166  0.3308E+00  0.1486E+00
 -20.156  0.3276E+00  0.1519E+00
 -20.146  0.3245E+00  0.1551E+00
 -20.136  0.3213E+00  0.1584E+00
 -20.126  0.3181E+00  0.1616E+00
 -20.116  0.3150E+00  0.1647E+00
 -20.106  0.3118E+00  0.1679E+00
 -20.096  0.3087E+00  0.1710E+00
 -20.086  0.3055E+00  0.1740E+00
 -20.076  0.3023E+00  0.1771E+00
 -20.066  0.2992E+00  0.1801E+00
 -20.056  0.2960E+00  0.1831E+00
 -20.046  0.2928E+00  0.1860E+00
 -20.036  0.2897E+00  0.1889E+00
 -20.026  0.2888E+00  0.1918E+00
 -20.016  0.2897E+00  0.1947E+00
 -20.006  0.2907E+00  0.1976E+00
 -19.996  0.2916E+00  0.2005E+00
 -19.986  0.2925E+00  0.2034E+00
 -19.976  0.2935E+00  0.2064E+00
 -19.966  0.2944E+00  0.2093E+00
 -19.956  0.2953E+00  0.2122E+00
 -19.946  0.2963E+00  0.2152E+00
 -19.936  0.2972E+00  0.2182E+00
 -19.926  0.2981E+00  0.2212E+00
 -19.916  0.2990E+00  0.2241E+00
 -19.906  0.3000E+00  0.2271E+00
 -19.896  0.3009E+00  0.2301E+00
 -19.886  0.3018E+00  0.2332E+00
 -19.876  0.3028E+00  0.2362E+00
 -19.866  0.3037E+00  0.2392E+00
 -19.856  0.3046E+00  0.2422E+00
 -19.846  0.3056E+00  0.2453E+00
 -19.836  0.3065E+00  0.2484E+00
 -19.826  0.3074E+00  0.2514E+00
 -19.816  0.3083E+00  0.2545E+00
 -19.806  0.3093E+00  0.2576E+00
 -19.796  0.3102E+00  0.2607E+00
 -19.786  0.3111E+00  0.2638E+00
 -19.776  0.3121E+00  0.2669E+00
 -19.766  0.3130E+00  0.2700E+00
 -19.756  0.3139E+00  0.2732E+00
 -19.746  0.3149E+00  0.2763E+00
 -19.736  0.3158E+00  0.2795E+00
 -19.726  0.3167E+00  0.2826E+00
 -19.716  0.3176E+00  0.2858E+00
 -19.706  0.3186E+00  0.2890E+00
 -19.696  0.3195E+00  0.2922E+00
 -19.686  0.3204E+00  0.2954E+00
 -19.676  0.3214E+00  0.2986E+00
 -19.666  0.3223E+00  0.3018E+00
 -19.656  0.3232E+00  0.3050E+00
 -19.646  0.3242E+00  0.3083E+00
 -19.636  0.3251E+00  0.3115E+00
 -19.626  0.3260E+00  0.3148E+00
 -19.616  0.3269E+00  0.3180E+00
 -19.606  0.3279E+00  0.3213E+00
 -19.596  0.3288E+00  0.3246E+00
 -19.586  0.3297E+00  0.3279E+00
 -19.576  0.3307E+00  0.3312E+00
 -19.566  0.3316E+00  0.3345E+00
 -19.556  0.3325E+00  0.3378E+00
 -19.546  0.3335E+00  0.3412E+00
 -19.536  0.3089E+00  0.3443E+00
 -19.526  0.3088E+00  0.3474E+00
 -19.516  0.3086E+00  0.3505E+00
 -19.506  0.3085E+00  0.3535E+00
 -19.496  0.3083E+00  0.3566E+00
 -19.486  0.3081E+00  0.3597E+00
 -19.476  0.3080E+00  0.3628E+00
 -19.466  0.3078E+00  0.3659E+00
 -19.456  0.3077E+00  0.3689E+00
 -19.446  0.3075E+00  0.3720E+00
 -19.436  0.3074E+00  0.3751E+00
 -19.426  0.3072E+00  0.3782E+00
 -19.416  0.3070E+00  0.3812E+00
 -19.406  0.3069E+00  0.3843E+00
 -19.396  0.3067E+00  0.3874E+00
 -19.386  0.3066E+00  0.3904E+00
 -19.376  0.3064E+00  0.3935E+00
 -19.366  0.3063E+00  0.3966E+00
 -19.356  0.3061E+00  0.3996E+00
 -19.346  0.3060E+00  0.4027E+00
 -19.336  0.3058E+00  0.4058E+00
 -19.326  0.3056E+00  0.4088E+00
 -19.316  0.3055E+00  0.4119E+00
 -19.306  0.3053E+00  0.4149E+00
 -19.296  0.3052E+00  0.4180E+00
 -19.286  0.3050E+00  0.4210E+00
 -19.276  0.3049E+00  0.4241E+00
 -19.266  0.3047E+00  0.4271E+00
 -19.256  0.3045E+00  0.4302E+00
 -19.246  0.3044E+00  0.4332E+00
 -19.236  0.3042E+00  0.4363E+00
 -19.226  0.3041E+00  0.4393E+00
 -19.216  0.3042E+00  0.4423E+00
 -19.206  0.3047E+00  0.4454E+00
 -19.196  0.3052E+00  0.4484E+00
 -19.186  0.3057E+00  0.4515E+00
 -19.176  0.3062E+00  0.4545E+00
 -19.166  0.3067E+00  0.4576E+00
 -19.156  0.3071E+00  0.4607E+00
 -19.146  0.3076E+00  0.4638E+00
 -19.136  0.3081E+00  0.4668E+00
 -19.126  0.3086E+00  0.4699E+00
 -19.116  0.3091E+00  0.4730E+00
 -19.106  0.3096E+00  0.4761E+00
 -19.096  0.3101E+00  0.4792E+00
 -19.086  0.3106E+00  0.4823E+00
 -19.076  0.3111E+00  0.4854E+00
 -19.066  0.3115E+00  0.4885E+00
 -19.056  0.3120E+00  0.4916E+00
 -19.046  0.3125E+00  0.4948E+00
 -19.036  0.3130E+00  0.4979E+00
 -19.026  0.3135E+00  0.5010E+00
 -19.016  0.3140E+00  0.5042E+00
 -19.006  0.3145E+00  0.5073E+00
 -18.996  0.3150E+00  0.5105E+00
 -18.986  0.3155E+00  0.5136E+00
 -18.976  0.3159E+00  0.5168E+00
 -18.966  0.3164E+00  0.5199E+00
 -18.956  0.3169E+00  0.5231E+00
 -18.946  0.3174E+00  0.5263E+00
 -18.936  0.3179E+00  0.5294E+00
 -18.926  0.3184E+00  0.5326E+00
 -18.916  0.3189E+00  0.5358E+00
 -18.906  0.3194E+00  0.5390E+00
 -18.896  0.3199E+00  0.5422E+00
 -18.886  0.3203E+00  0.5454E+00
 -18.876  0.3208E+00  0.5486E+00
 -18.866  0.3213E+00  0.5518E+00
 -18.856  0.3218E+00  0.5550E+00
 -18.846  0.3223E+00  0.5582E+00
 -18.836  0.3228E+00  0.5615E+00
 -18.826  0.3233E+00  0.5647E+00
 -18.816  0.3238E+00  0.5679E+00
 -18.806  0.3243E+00  0.5712E+00
 -18.796  0.3247E+00  0.5744E+00
 -18.786  0.3252E+00  0.5777E+00
 -18.776  0.3257E+00  0.5809E+00
 -18.766  0.3262E+00  0.5842E+00
 -18.756  0.3267E+00  0.5874E+00
 -18.746  0.3272E+00  0.5907E+00
 -18.736  0.3272E+00  0.5940E+00
 -18.726  0.3261E+00  0.5973E+00
 -18.716  0.3250E+00  0.6005E+00
 -18.706  0.3239E+00  0.6038E+00
 -18.696  0.3228E+00  0.6070E+00
 -18.686  0.3217E+00  0.6102E+00
 -18.676  0.3207E+00  0.6134E+00
 -18.666  0.3196E+00  0.6166E+00
 -18.656  0.3185E+00  0.6198E+00
 -18.646  0.3174E+00  0.6230E+00
 -18.636  0.3163E+00  0.6262E+00
 -18.626  0.3152E+00  0.6293E+00
 -18.616  0.3142E+00  0.6325E+00
 -18.606  0.3131E+00  0.6356E+00
 -18.596  0.3120E+00  0.6387E+00
 -18.586  0.3109E+00  0.6418E+00
 -18.576  0.3102E+00  0.6450E+00
 -18.566  0.3103E+00  0.6481E+00
 -18.556  0.3105E+00  0.6512E+00
 -18.546  0.3106E+00  0.6543E+00
 -18.536  0.3107E+00  0.6574E+00
 -18.526  0.3109E+00  0.6605E+00
 -18.516  0.3110E+00  0.6636E+00
 -18.506  0.3111E+00  0.6667E+00
 -18.496  0.3113E+00  0.6698E+00
 -18.486  0.3114E+00  0.6729E+00
 -18.476  0.3115E+00  0.6760E+00
 -18.466  0.3117E+00  0.6792E+00
 -18.456  0.3118E+00  0.6823E+00
 -18.446  0.3120E+00  0.6854E+00
 -18.436  0.3121E+00  0.6885E+00
 -18.426  0.3122E+00  0.6916E+00
 -18.416  0.3124E+00  0.6948E+00
 -18.406  0.3125E+00  0.6979E+00
 -18.396  0.3126E+00  0.7010E+00
 -18.386  0.3128E+00  0.7041E+00
 -18.376  0.3129E+00  0.7073E+00
 -18.366  0.3130E+00  0.7104E+00
 -18.356  0.3132E+00  0.7135E+00
 -18.346  0.3133E+00  0.7167E+00
 -18.336  0.3134E+00  0.7198E+00
 -18.326  0.3136E+00  0.7229E+00
 -18.316  0.3137E+00  0.7261E+00
 -18.306  0.3139E+00  0.7292E+00
 -18.296  0.3140E+00  0.7323E+00
 -18.286  0.3141E+00  0.7355E+00
 -18.276  0.3143E+00  0.7386E+00
 -18.266  0.3144E+00  0.7418E+00
 -18.256  0.3145E+00  0.7449E+00
 -18.246  0.3147E+00  0.7481E+00
 -18.236  0.3148E+00  0.7512E+00
 -18.226  0.3149E+00  0.7543E+00
 -18.216  0.3151E+00  0.7575E+00
 -18.206  0.3152E+00  0.7607E+00
 -18.196  0.3153E+00  0.7638E+00
 -18.186  0.3155E+00  0.7670E+00
 -18.176  0.3156E+00  0.7701E+00
 -18.166  0.3158E+00  0.7733E+00
 -18.156  0.3159E+00  0.7764E+00
 -18.146  0.3160E+00  0.7796E+00
 -18.136  0.3162E+00  0.7827E+00
 -18.126  0.3163E+00  0.7859E+00
 -18.116  0.3164E+00  0.7891E+00
 -18.106  0.3166E+00  0.7922E+00
 -18.096  0.3168E+00  0.7954E+00
 -18.086  0.3171E+00  0.7986E+00
 -18.076  0.3174E+00  0.8017E+00
 -18.066  0.3178E+00  0.8049E+00
 -18.056  0.3181E+00  0.8081E+00
 -18.046  0.3184E+00  0.8113E+00
 -18.036  0.3187E+00  0.8145E+00
 -18.026  0.3191E+00  0.8177E+00
 -18.016  0.3194E+00  0.8209E+00
 -18.006  0.3197E+00  0.8240E+00
 -17.996  0.3200E+00  0.8272E+00
 -17.986  0.3203E+00  0.8304E+00
 -17.976  0.3207E+00  0.8337E+00
 -17.966  0.3210E+00  0.8369E+00
 -17.956  0.3213E+00  0.8401E+00
 -17.946  0.3216E+00  0.8433E+00
 -17.936  0.3220E+00  0.8465E+00
 -17.926  0.3223E+00  0.8497E+00
 -17.916  0.3226E+00  0.8530E+00
 -17.906  0.3229E+00  0.8562E+00
 -17.896  0.3232E+00  0.8594E+00
 -17.886  0.3236E+00  0.8626E+00
 -17.876  0.3239E+00  0.8659E+00
 -17.866  0.3242E+00  0.8691E+00
 -17.856  0.3245E+00  0.8724E+00
 -17.846  0.3249E+00  0.8756E+00
 -17.836  0.3252E+00  0.8789E+00
 -17.826  0.3255E+00  0.8821E+00
 -17.816  0.3258E+00  0.8854E+00
 -17.806  0.3261E+00  0.8886E+00
 -17.796  0.3265E+00  0.8919E+00
 -17.786  0.3268E+00  0.8952E+00
 -17.776  0.3271E+00  0.8984E+00
 -17.766  0.3274E+00  0.9017E+00
 -17.756  0.3278E+00  0.9050E+00
 -17.746  0.3281E+00  0.9083E+00
 -17.736  0.3284E+00  0.9115E+00
 -17.726  0.3287E+00  0.9148E+00
 -17.716  0.3290E+00  0.9181E+00
 -17.706  0.3294E+00  0.9214E+00
 -17.696  0.3297E+00  0.9247E+00
 -17.686  0.3300E+00  0.9280E+00
 -17.676  0.3303E+00  0.9313E+00
 -17.666  0.3307E+00  0.9346E+00
 -17.656  0.3310E+00  0.9379E+00
 -17.646  0.3313E+00  0.9412E+00
 -17.636  0.3316E+00  0.9445E+00
 -17.626  0.3244E+00  0.9478E+00
 -17.616  0.3243E+00  0.9511E+00
 -17.606  0.3242E+00  0.9543E+00
 -17.596  0.3241E+00  0.9576E+00
 -17.586  0.3240E+00  0.9608E+00
 -17.576  0.3240E+00  0.9640E+00
 -17.566  0.3239E+00  0.9673E+00
 -17.556  0.3238E+00  0.9705E+00
 -17.546  0.3237E+00  0.9737E+00
 -17.536  0.3236E+00  0.9770E+00
 -17.526  0.3235E+00  0.9802E+00
 -17.516  0.3234E+00  0.9835E+00
 -17.506  0.3233E+00  0.9867E+00
 -17.496  0.3233E+00  0.9899E+00
 -17.486  0.3232E+00  0.9932E+00
 -17.476  0.3231E+00  0.9964E+00
 -17.466  0.3230E+00  0.9996E+00
 -17.456  0.3229E+00  0.1003E+01
 -17.446  0.3228E+00  0.1006E+01
 -17.436  0.3227E+00  0.1009E+01
 -17.426  0.3227E+00  0.1013E+01
 -17.416  0.3226E+00  0.1016E+01
 -17.406  0.3225E+00  0.1019E+01
 -17.396  0.3224E+00  0.1022E+01
 -17.386  0.3223E+00  0.1025E+01
 -17.376  0.3222E+00  0.1029E+01
 -17.366  0.3221E+00  0.1032E+01
 -17.356  0.3221E+00  0.1035E+01
 -17.346  0.3220E+00  0.1038E+01
 -17.336  0.3219E+00  0.1042E+01
 -17.326  0.3218E+00  0.1045E+01
 -17.316  0.3218E+00  0.1048E+01
 -17.306  0.3220E+00  0.1051E+01
 -17.296  0.3223E+00  0.1054E+01
 -17.286  0.3225E+00  0.1058E+01
 -17.276  0.3227E+00  0.1061E+01
 -17.266  0.3230E+00  0.1064E+01
 -17.256  0.3232E+00  0.1067E+01
 -17.246  0.3235E+00  0.1071E+01
 -17.236  0.3237E+00  0.1074E+01
 -17.226  0.3239E+00  0.1077E+01
 -17.216  0.3242E+00  0.1080E+01
 -17.206  0.3244E+00  0.1084E+01
 -17.196  0.3247E+00  0.1087E+01
 -17.186  0.3249E+00  0.1090E+01
 -17.176  0.3252E+00  0.1093E+01
 -17.166  0.3254E+00  0.1097E+01
 -17.156  0.3256E+00  0.1100E+01
 -17.146  0.3259E+00  0.1103E+01
 -17.136  0.3261E+00  0.1106E+01
 -17.126  0.3264E+00  0.1110E+01
 -17.116  0.3266E+00  0.1113E+01
 -17.106  0.3268E+00  0.1116E+01
 -17.096  0.3271E+00  0.1119E+01
 -17.086  0.3273E+00  0.1123E+01
 -17.076  0.3276E+00  0.1126E+01
 -17.066  0.3278E+00  0.1129E+01
 -17.056  0.3280E+00  0.1132E+01
 -17.046  0.3283E+00  0.1136E+01
 -17.036  0.3285E+00  0.1139E+01
 -17.026  0.3288E+00  0.1142E+01
 -17.016  0.3290E+00  0.1146E+01
 -17.006  0.3293E+00  0.1149E+01
 -16.996  0.3295E+00  0.1152E+01
 -16.986  0.3297E+00  0.1155E+01
 -16.976  0.3300E+00  0.1159E+01
 -16.966  0.3302E+00  0.1162E+01
 -16.956  0.3305E+00  0.1165E+01
 -16.946  0.3307E+00  0.1169E+01
 -16.936  0.3309E+00  0.1172E+01
 -16.926  0.3312E+00  0.1175E+01
 -16.916  0.3314E+00  0.1179E+01
 -16.906  0.3317E+00  0.1182E+01
 -16.896  0.3319E+00  0.1185E+01
 -16.886  0.3321E+00  0.1189E+01
 -16.876  0.3324E+00  0.1192E+01
 -16.866  0.3326E+00  0.1195E+01
 -16.856  0.3329E+00  0.1199E+01
 -16.846  0.3331E+00  0.1202E+01
 -16.836  0.3334E+00  0.1205E+01
 -16.826  0.3336E+00  0.1209E+01
 -16.816  0.3338E+00  0.1212E+01
 -16.806  0.3341E+00  0.1215E+01
 -16.796  0.3343E+00  0.1219E+01
 -16.786  0.3346E+00  0.1222E+01
 -16.776  0.3348E+00  0.1225E+01
 -16.766  0.3350E+00  0.1229E+01
 -16.756  0.3353E+00  0.1232E+01
 -16.746  0.3355E+00  0.1235E+01
 -16.736  0.3358E+00  0.1239E+01
 -16.726  0.3360E+00  0.1242E+01
 -16.716  0.3362E+00  0.1245E+01
 -16.706  0.3365E+00  0.1249E+01
 -16.696  0.3370E+00  0.1252E+01
 -16.686  0.3376E+00  0.1255E+01
 -16.676  0.3381E+00  0.1259E+01
 -16.666  0.3387E+00  0.1262E+01
 -16.656  0.3393E+00  0.1266E+01
 -16.646  0.3399E+00  0.1269E+01
 -16.636  0.3404E+00  0.1272E+01
 -16.626  0.3410E+00  0.1276E+01
 -16.616  0.3416E+00  0.1279E+01
 -16.606  0.3421E+00  0.1283E+01
 -16.596  0.3427E+00  0.1286E+01
 -16.586  0.3433E+00  0.1290E+01
 -16.576  0.3438E+00  0.1293E+01
 -16.566  0.3444E+00  0.1296E+01
 -16.556  0.3450E+00  0.1300E+01
 -16.546  0.3456E+00  0.1303E+01
 -16.536  0.3461E+00  0.1307E+01
 -16.526  0.3467E+00  0.1310E+01
 -16.516  0.3473E+00  0.1314E+01
 -16.506  0.3478E+00  0.1317E+01
 -16.496  0.3484E+00  0.1321E+01
 -16.486  0.3490E+00  0.1324E+01
 -16.476  0.3495E+00  0.1328E+01
 -16.466  0.3501E+00  0.1331E+01
 -16.456  0.3507E+00  0.1335E+01
 -16.446  0.3512E+00  0.1338E+01
 -16.436  0.3518E+00  0.1342E+01
 -16.426  0.3524E+00  0.1345E+01
 -16.416  0.3530E+00  0.1349E+01
 -16.406  0.3535E+00  0.1352E+01
 -16.396  0.3539E+00  0.1356E+01
 -16.386  0.3542E+00  0.1359E+01
 -16.376  0.3545E+00  0.1363E+01
 -16.366  0.3547E+00  0.1366E+01
 -16.356  0.3550E+00  0.1370E+01
 -16.346  0.3553E+00  0.1374E+01
 -16.336  0.3556E+00  0.1377E+01
 -16.326  0.3559E+00  0.1381E+01
 -16.316  0.3561E+00  0.1384E+01
 -16.306  0.3564E+00  0.1388E+01
 -16.296  0.3567E+00  0.1391E+01
 -16.286  0.3570E+00  0.1395E+01
 -16.276  0.3572E+00  0.1398E+01
 -16.266  0.3575E+00  0.1402E+01
 -16.256  0.3578E+00  0.1406E+01
 -16.246  0.3589E+00  0.1409E+01
 -16.236  0.3602E+00  0.1413E+01
 -16.226  0.3615E+00  0.1416E+01
 -16.216  0.3627E+00  0.1420E+01
 -16.206  0.3640E+00  0.1424E+01
 -16.196  0.3653E+00  0.1427E+01
 -16.186  0.3666E+00  0.1431E+01
 -16.176  0.3679E+00  0.1435E+01
 -16.166  0.3692E+00  0.1438E+01
 -16.156  0.3705E+00  0.1442E+01
 -16.146  0.3718E+00  0.1446E+01
 -16.136  0.3731E+00  0.1449E+01
 -16.126  0.3744E+00  0.1453E+01
 -16.116  0.3757E+00  0.1457E+01
 -16.106  0.3769E+00  0.1461E+01
 -16.096  0.3782E+00  0.1464E+01
 -16.086  0.3795E+00  0.1468E+01
 -16.076  0.3808E+00  0.1472E+01
 -16.066  0.3821E+00  0.1476E+01
 -16.056  0.3834E+00  0.1480E+01
 -16.046  0.3847E+00  0.1484E+01
 -16.036  0.3860E+00  0.1487E+01
 -16.026  0.3873E+00  0.1491E+01
 -16.016  0.3886E+00  0.1495E+01
 -16.006  0.3899E+00  0.1499E+01
 -15.996  0.3911E+00  0.1503E+01
 -15.986  0.3924E+00  0.1507E+01
 -15.976  0.3937E+00  0.1511E+01
 -15.966  0.3950E+00  0.1515E+01
 -15.956  0.3963E+00  0.1519E+01
 -15.946  0.3976E+00  0.1523E+01
 -15.936  0.3989E+00  0.1527E+01
 -15.926  0.4002E+00  0.1531E+01
 -15.916  0.4015E+00  0.1535E+01
 -15.906  0.4028E+00  0.1539E+01
 -15.896  0.4041E+00  0.1543E+01
 -15.886  0.4053E+00  0.1547E+01
 -15.876  0.4066E+00  0.1551E+01
 -15.866  0.4079E+00  0.1555E+01
 -15.856  0.4092E+00  0.1559E+01
 -15.846  0.4105E+00  0.1563E+01
 -15.836  0.7210E+00  0.1567E+01
 -15.826  0.7102E+00  0.1574E+01
 -15.816  0.6994E+00  0.1581E+01
 -15.806  0.6887E+00  0.1588E+01
 -15.796  0.6779E+00  0.1595E+01
 -15.786  0.6671E+00  0.1602E+01
 -15.776  0.6563E+00  0.1609E+01
 -15.766  0.6455E+00  0.1615E+01
 -15.756  0.6347E+00  0.1621E+01
 -15.746  0.6239E+00  0.1628E+01
 -15.736  0.6132E+00  0.1634E+01
 -15.726  0.6024E+00  0.1640E+01
 -15.716  0.5916E+00  0.1646E+01
 -15.706  0.5808E+00  0.1652E+01
 -15.696  0.5700E+00  0.1658E+01
 -15.686  0.5592E+00  0.1663E+01
 -15.676  0.5484E+00  0.1669E+01
 -15.666  0.5377E+00  0.1674E+01
 -15.656  0.5269E+00  0.1680E+01
 -15.646  0.5161E+00  0.1685E+01
 -15.636  0.5053E+00  0.1690E+01
 -15.626  0.4945E+00  0.1695E+01
 -15.616  0.4837E+00  0.1700E+01
 -15.606  0.4730E+00  0.1704E+01
 -15.596  0.4622E+00  0.1709E+01
 -15.586  0.4514E+00  0.1714E+01
 -15.576  0.4406E+00  0.1718E+01
 -15.566  0.4298E+00  0.1723E+01
 -15.556  0.4190E+00  0.1727E+01
 -15.546  0.4082E+00  0.1731E+01
 -15.536  0.3975E+00  0.1735E+01
 -15.526  0.3867E+00  0.1739E+01
 -15.516  0.3759E+00  0.1743E+01
 -15.506  0.3651E+00  0.1746E+01
 -15.496  0.3543E+00  0.1750E+01
 -15.486  0.3435E+00  0.1753E+01
 -15.476  0.3328E+00  0.1757E+01
 -15.466  0.3220E+00  0.1760E+01
 -15.456  0.3112E+00  0.1763E+01
 -15.446  0.3004E+00  0.1766E+01
 -15.436  0.2896E+00  0.1769E+01
 -15.426  0.2866E+00  0.1772E+01
 -15.416  0.2843E+00  0.1775E+01
 -15.406  0.2820E+00  0.1778E+01
 -15.396  0.2796E+00  0.1781E+01
 -15.386  0.2773E+00  0.1783E+01
 -15.376  0.2750E+00  0.1786E+01
 -15.366  0.2727E+00  0.1789E+01
 -15.356  0.2703E+00  0.1792E+01
 -15.346  0.2680E+00  0.1794E+01
 -15.336  0.2657E+00  0.1797E+01
 -15.326  0.2634E+00  0.1800E+01
 -15.316  0.2610E+00  0.1802E+01
 -15.306  0.2587E+00  0.1805E+01
 -15.296  0.2564E+00  0.1807E+01
 -15.286  0.2541E+00  0.1810E+01
 -15.276  0.2517E+00  0.1813E+01
 -15.266  0.2494E+00  0.1815E+01
 -15.256  0.2471E+00  0.1818E+01
 -15.246  0.2448E+00  0.1820E+01
 -15.236  0.2424E+00  0.1822E+01
 -15.226  0.2401E+00  0.1825E+01
 -15.216  0.2378E+00  0.1827E+01
 -15.206  0.2355E+00  0.1830E+01
 -15.196  0.2332E+00  0.1832E+01
 -15.186  0.2308E+00  0.1834E+01
 -15.176  0.2285E+00  0.1837E+01
 -15.166  0.2262E+00  0.1839E+01
 -15.156  0.2239E+00  0.1841E+01
 -15.146  0.2215E+00  0.1843E+01
 -15.136  0.2192E+00  0.1846E+01
 -15.126  0.2169E+00  0.1848E+01
 -15.116  0.2146E+00  0.1850E+01
 -15.106  0.2122E+00  0.1852E+01
 -15.096  0.2099E+00  0.1854E+01
 -15.086  0.2076E+00  0.1856E+01
 -15.076  0.2053E+00  0.1858E+01
 -15.066  0.2029E+00  0.1860E+01
 -15.056  0.2006E+00  0.1862E+01
 -15.046  0.1983E+00  0.1864E+01
 -15.036  0.1960E+00  0.1866E+01
 -15.026  0.1936E+00  0.1868E+01
 -15.016  0.1913E+00  0.1870E+01
 -15.006  0.6955E+00  0.1874E+01
 -14.996  0.1281E+01  0.1884E+01
 -14.986  0.1866E+01  0.1900E+01
 -14.976  0.1365E+00  0.1917E+01
 -14.966  0.1354E+00  0.1918E+01
 -14.956  0.1343E+00  0.1920E+01
 -14.946  0.1331E+00  0.1921E+01
 -14.936  0.1320E+00  0.1922E+01
 -14.926  0.1309E+00  0.1924E+01
 -14.916  0.1298E+00  0.1925E+01
 -14.906  0.1287E+00  0.1926E+01
 -14.896  0.1275E+00  0.1928E+01
 -14.886  0.1264E+00  0.1929E+01
 -14.876  0.1253E+00  0.1930E+01
 -14.866  0.1242E+00  0.1931E+01
 -14.856  0.1231E+00  0.1933E+01
 -14.846  0.1219E+00  0.1934E+01
 -14.836  0.1208E+00  0.1935E+01
 -14.826  0.1197E+00  0.1936E+01
 -14.816  0.1186E+00  0.1937E+01
 -14.806  0.1174E+00  0.1939E+01
 -14.796  0.1163E+00  0.1940E+01
 -14.786  0.1152E+00  0.1941E+01
 -14.776  0.1141E+00  0.1942E+01
 -14.766  0.1130E+00  0.1943E+01
 -14.756  0.1118E+00  0.1944E+01
 -14.746  0.1107E+00  0.1945E+01
 -14.736  0.1096E+00  0.1946E+01
 -14.726  0.1085E+00  0.1948E+01
 -14.716  0.1073E+00  0.1949E+01
 -14.706  0.1062E+00  0.1950E+01
 -14.696  0.1051E+00  0.1951E+01
 -14.686  0.1040E+00  0.1952E+01
 -14.676  0.1029E+00  0.1953E+01
 -14.666  0.1017E+00  0.1954E+01
 -14.656  0.1006E+00  0.1955E+01
 -14.646  0.9949E-01  0.1956E+01
 -14.636  0.9837E-01  0.1957E+01
 -14.626  0.9725E-01  0.1958E+01
 -14.616  0.9613E-01  0.1959E+01
 -14.606  0.9500E-01  0.1960E+01
 -14.596  0.9388E-01  0.1961E+01
 -14.586  0.9276E-01  0.1962E+01
 -14.576  0.9164E-01  0.1963E+01
 -14.566  0.9052E-01  0.1963E+01
 -14.556  0.8940E-01  0.1964E+01
 -14.546  0.8827E-01  0.1965E+01
 -14.536  0.8715E-01  0.1966E+01
 -14.526  0.8603E-01  0.1967E+01
 -14.516  0.8491E-01  0.1968E+01
 -14.506  0.8379E-01  0.1969E+01
 -14.496  0.8266E-01  0.1970E+01
 -14.486  0.8154E-01  0.1970E+01
 -14.476  0.8042E-01  0.1971E+01
 -14.466  0.7930E-01  0.1972E+01
 -14.456  0.7818E-01  0.1973E+01
 -14.446  0.7706E-01  0.1974E+01
 -14.436  0.7593E-01  0.1974E+01
 -14.426  0.7481E-01  0.1975E+01
 -14.416  0.7458E-01  0.1976E+01
 -14.406  0.7696E-01  0.1977E+01
 -14.396  0.7935E-01  0.1977E+01
 -14.386  0.8174E-01  0.1978E+01
 -14.376  0.8413E-01  0.1979E+01
 -14.366  0.8652E-01  0.1980E+01
 -14.356  0.8890E-01  0.1981E+01
 -14.346  0.9129E-01  0.1982E+01
 -14.336  0.9368E-01  0.1983E+01
 -14.326  0.9607E-01  0.1983E+01
 -14.316  0.9846E-01  0.1984E+01
 -14.306  0.1008E+00  0.1985E+01
 -14.296  0.1032E+00  0.1986E+01
 -14.286  0.1056E+00  0.1988E+01
 -14.276  0.1080E+00  0.1989E+01
 -14.266  0.1104E+00  0.1990E+01
 -14.256  0.1128E+00  0.1991E+01
 -14.246  0.1152E+00  0.1992E+01
 -14.236  0.1176E+00  0.1993E+01
 -14.226  0.1200E+00  0.1994E+01
 -14.216  0.1223E+00  0.1995E+01
 -14.206  0.1247E+00  0.1997E+01
 -14.196  0.1271E+00  0.1998E+01
 -14.186  0.1295E+00  0.1999E+01
 -14.176  0.1319E+00  0.2001E+01
 -14.166  0.1343E+00  0.2002E+01
 -14.156  0.1367E+00  0.2003E+01
 -14.146  0.1391E+00  0.2005E+01
 -14.136  0.1414E+00  0.2006E+01
 -14.126  0.1438E+00  0.2007E+01
 -14.116  0.1462E+00  0.2009E+01
 -14.106  0.1486E+00  0.2010E+01
 -14.096  0.1510E+00  0.2012E+01
 -14.086  0.1534E+00  0.2013E+01
 -14.076  0.1558E+00  0.2015E+01
 -14.066  0.1582E+00  0.2017E+01
 -14.056  0.1605E+00  0.2018E+01
 -14.046  0.1629E+00  0.2020E+01
 -14.036  0.1653E+00  0.2021E+01
 -14.026  0.1677E+00  0.2023E+01
 -14.016  0.1731E+00  0.2025E+01
 -14.006  0.1938E+00  0.2027E+01
 -13.996  0.2144E+00  0.2029E+01
 -13.986  0.2350E+00  0.2031E+01
 -13.976  0.2556E+00  0.2033E+01
 -13.966  0.2762E+00  0.2036E+01
 -13.956  0.2968E+00  0.2039E+01
 -13.946  0.3175E+00  0.2042E+01
 -13.936  0.3381E+00  0.2045E+01
 -13.926  0.3587E+00  0.2049E+01
 -13.916  0.3793E+00  0.2052E+01
 -13.906  0.3999E+00  0.2056E+01
 -13.896  0.4206E+00  0.2060E+01
 -13.886  0.4412E+00  0.2065E+01
 -13.876  0.4618E+00  0.2069E+01
 -13.866  0.4824E+00  0.2074E+01
 -13.856  0.5030E+00  0.2079E+01
 -13.846  0.5237E+00  0.2084E+01
 -13.836  0.5443E+00  0.2089E+01
 -13.826  0.5649E+00  0.2095E+01
 -13.816  0.5855E+00  0.2101E+01
 -13.806  0.6061E+00  0.2107E+01
 -13.796  0.6268E+00  0.2113E+01
 -13.786  0.6474E+00  0.2119E+01
 -13.776  0.6680E+00  0.2126E+01
 -13.766  0.6886E+00  0.2132E+01
 -13.756  0.7109E+00  0.2139E+01
 -13.746  0.2945E+00  0.2145E+01
 -13.736  0.3004E+00  0.2148E+01
 -13.726  0.3063E+00  0.2151E+01
 -13.716  0.3122E+00  0.2154E+01
 -13.706  0.3180E+00  0.2157E+01
 -13.696  0.3239E+00  0.2161E+01
 -13.686  0.3298E+00  0.2164E+01
 -13.676  0.3357E+00  0.2167E+01
 -13.666  0.3416E+00  0.2171E+01
 -13.656  0.3474E+00  0.2174E+01
 -13.646  0.3533E+00  0.2178E+01
 -13.636  0.3592E+00  0.2181E+01
 -13.626  0.3651E+00  0.2185E+01
 -13.616  0.3710E+00  0.2188E+01
 -13.606  0.3768E+00  0.2192E+01
 -13.596  0.3827E+00  0.2196E+01
 -13.586  0.3886E+00  0.2200E+01
 -13.576  0.3945E+00  0.2204E+01
 -13.566  0.4003E+00  0.2208E+01
 -13.556  0.4062E+00  0.2212E+01
 -13.546  0.4121E+00  0.2216E+01
 -13.536  0.4180E+00  0.2220E+01
 -13.526  0.4239E+00  0.2224E+01
 -13.516  0.4297E+00  0.2228E+01
 -13.506  0.4356E+00  0.2233E+01
 -13.496  0.4415E+00  0.2237E+01
 -13.486  0.4474E+00  0.2242E+01
 -13.476  0.4533E+00  0.2246E+01
 -13.466  0.4591E+00  0.2251E+01
 -13.456  0.4650E+00  0.2255E+01
 -13.446  0.4709E+00  0.2260E+01
 -13.436  0.4768E+00  0.2265E+01
 -13.426  0.4827E+00  0.2270E+01
 -13.416  0.4885E+00  0.2274E+01
 -13.406  0.4944E+00  0.2279E+01
 -13.396  0.5003E+00  0.2284E+01
 -13.386  0.5062E+00  0.2289E+01
 -13.376  0.5120E+00  0.2294E+01
 -13.366  0.5179E+00  0.2300E+01
 -13.356  0.5238E+00  0.2305E+01
 -13.346  0.5297E+00  0.2310E+01
 -13.336  0.5356E+00  0.2315E+01
 -13.326  0.5414E+00  0.2321E+01
 -13.316  0.5473E+00  0.2326E+01
 -13.306  0.5532E+00  0.2332E+01
 -13.296  0.5591E+00  0.2337E+01
 -13.286  0.5650E+00  0.2343E+01
 -13.276  0.5708E+00  0.2349E+01
 -13.266  0.5767E+00  0.2354E+01
 -13.256  0.5826E+00  0.2360E+01
 -13.246  0.5885E+00  0.2366E+01
 -13.236  0.5944E+00  0.2372E+01
 -13.226  0.6002E+00  0.2378E+01
 -13.216  0.6061E+00  0.2384E+01
 -13.206  0.6120E+00  0.2390E+01
 -13.196  0.6179E+00  0.2396E+01
 -13.186  0.6237E+00  0.2402E+01
 -13.176  0.6296E+00  0.2409E+01
 -13.166  0.6355E+00  0.2415E+01
 -13.156  0.6414E+00  0.2421E+01
 -13.146  0.6473E+00  0.2428E+01
 -13.136  0.6531E+00  0.2434E+01
 -13.126  0.6590E+00  0.2441E+01
 -13.116  0.3656E+00  0.2446E+01
 -13.106  0.3647E+00  0.2449E+01
 -13.096  0.3637E+00  0.2453E+01
 -13.086  0.3628E+00  0.2457E+01
 -13.076  0.3619E+00  0.2460E+01
 -13.066  0.3609E+00  0.2464E+01
 -13.056  0.3600E+00  0.2468E+01
 -13.046  0.3591E+00  0.2471E+01
 -13.036  0.3582E+00  0.2475E+01
 -13.026  0.3572E+00  0.2478E+01
 -13.016  0.3563E+00  0.2482E+01
 -13.006  0.3554E+00  0.2485E+01
 -12.996  0.3544E+00  0.2489E+01
 -12.986  0.3535E+00  0.2493E+01
 -12.976  0.3526E+00  0.2496E+01
 -12.966  0.3516E+00  0.2500E+01
 -12.956  0.3507E+00  0.2503E+01
 -12.946  0.3498E+00  0.2507E+01
 -12.936  0.3488E+00  0.2510E+01
 -12.926  0.3479E+00  0.2514E+01
 -12.916  0.3470E+00  0.2517E+01
 -12.906  0.3460E+00  0.2521E+01
 -12.896  0.3453E+00  0.2524E+01
 -12.886  0.3446E+00  0.2527E+01
 -12.876  0.3439E+00  0.2531E+01
 -12.866  0.3432E+00  0.2534E+01
 -12.856  0.3425E+00  0.2538E+01
 -12.846  0.3418E+00  0.2541E+01
 -12.836  0.3411E+00  0.2545E+01
 -12.826  0.3404E+00  0.2548E+01
 -12.816  0.3397E+00  0.2551E+01
 -12.806  0.3390E+00  0.2555E+01
 -12.796  0.3383E+00  0.2558E+01
 -12.786  0.3376E+00  0.2562E+01
 -12.776  0.3369E+00  0.2565E+01
 -12.766  0.3362E+00  0.2568E+01
 -12.756  0.3355E+00  0.2572E+01
 -12.746  0.3348E+00  0.2575E+01
 -12.736  0.3341E+00  0.2578E+01
 -12.726  0.3334E+00  0.2582E+01
 -12.716  0.3327E+00  0.2585E+01
 -12.706  0.3320E+00  0.2588E+01
 -12.696  0.3313E+00  0.2592E+01
 -12.686  0.3306E+00  0.2595E+01
 -12.676  0.3299E+00  0.2598E+01
 -12.666  0.3292E+00  0.2602E+01
 -12.656  0.3285E+00  0.2605E+01
 -12.646  0.3278E+00  0.2608E+01
 -12.636  0.3271E+00  0.2611E+01
 -12.626  0.3264E+00  0.2615E+01
 -12.616  0.3257E+00  0.2618E+01
 -12.606  0.3250E+00  0.2621E+01
 -12.596  0.3243E+00  0.2624E+01
 -12.586  0.3236E+00  0.2628E+01
 -12.576  0.3229E+00  0.2631E+01
 -12.566  0.3221E+00  0.2634E+01
 -12.556  0.3213E+00  0.2637E+01
 -12.546  0.3205E+00  0.2641E+01
 -12.536  0.3197E+00  0.2644E+01
 -12.526  0.3189E+00  0.2647E+01
 -12.516  0.3182E+00  0.2650E+01
 -12.506  0.3174E+00  0.2653E+01
 -12.496  0.3166E+00  0.2656E+01
 -12.486  0.3158E+00  0.2660E+01
 -12.476  0.3150E+00  0.2663E+01
 -12.466  0.3142E+00  0.2666E+01
 -12.456  0.3134E+00  0.2669E+01
 -12.446  0.3126E+00  0.2672E+01
 -12.436  0.3118E+00  0.2675E+01
 -12.426  0.3110E+00  0.2678E+01
 -12.416  0.3102E+00  0.2682E+01
 -12.406  0.3094E+00  0.2685E+01
 -12.396  0.3087E+00  0.2688E+01
 -12.386  0.3079E+00  0.2691E+01
 -12.376  0.3071E+00  0.2694E+01
 -12.366  0.3063E+00  0.2697E+01
 -12.356  0.3055E+00  0.2700E+01
 -12.346  0.3047E+00  0.2703E+01
 -12.336  0.3039E+00  0.2706E+01
 -12.326  0.3031E+00  0.2709E+01
 -12.316  0.3023E+00  0.2712E+01
 -12.306  0.3015E+00  0.2715E+01
 -12.296  0.3007E+00  0.2718E+01
 -12.286  0.2999E+00  0.2721E+01
 -12.276  0.2992E+00  0.2724E+01
 -12.266  0.2984E+00  0.2727E+01
 -12.256  0.2976E+00  0.2730E+01
 -12.246  0.2968E+00  0.2733E+01
 -12.236  0.2960E+00  0.2736E+01
 -12.226  0.2952E+00  0.2739E+01
 -12.216  0.2944E+00  0.2742E+01
 -12.206  0.2936E+00  0.2745E+01
 -12.196  0.2928E+00  0.2748E+01
 -12.186  0.2920E+00  0.2751E+01
 -12.176  0.2912E+00  0.2754E+01
 -12.166  0.2905E+00  0.2757E+01
 -12.156  0.2897E+00  0.2760E+01
 -12.146  0.2889E+00  0.2762E+01
 -12.136  0.2881E+00  0.2765E+01
 -12.126  0.2873E+00  0.2768E+01
 -12.116  0.2865E+00  0.2771E+01
 -12.106  0.2857E+00  0.2774E+01
 -12.096  0.2849E+00  0.2777E+01
 -12.086  0.2841E+00  0.2780E+01
 -12.076  0.2833E+00  0.2782E+01
 -12.066  0.2825E+00  0.2785E+01
 -12.056  0.2817E+00  0.2788E+01
 -12.046  0.2810E+00  0.2791E+01
 -12.036  0.2802E+00  0.2794E+01
 -12.026  0.2794E+00  0.2797E+01
 -12.016  0.2786E+00  0.2799E+01
 -12.006  0.2778E+00  0.2802E+01
 -11.996  0.2770E+00  0.2805E+01
 -11.986  0.2762E+00  0.2808E+01
 -11.976  0.2754E+00  0.2810E+01
 -11.966  0.2746E+00  0.2813E+01
 -11.956  0.2738E+00  0.2816E+01
 -11.946  0.2730E+00  0.2819E+01
 -11.936  0.2722E+00  0.2821E+01
 -11.926  0.2715E+00  0.2824E+01
 -11.916  0.2707E+00  0.2827E+01
 -11.906  0.2699E+00  0.2829E+01
 -11.896  0.2691E+00  0.2832E+01
 -11.886  0.2683E+00  0.2835E+01
 -11.876  0.2675E+00  0.2838E+01
 -11.866  0.2667E+00  0.2840E+01
 -11.856  0.2659E+00  0.2843E+01
 -11.846  0.2651E+00  0.2846E+01
 -11.836  0.2643E+00  0.2848E+01
 -11.826  0.2635E+00  0.2851E+01
 -11.816  0.2627E+00  0.2853E+01
 -11.806  0.2619E+00  0.2856E+01
 -11.796  0.2611E+00  0.2859E+01
 -11.786  0.2603E+00  0.2861E+01
 -11.776  0.2594E+00  0.2864E+01
 -11.766  0.2586E+00  0.2866E+01
 -11.756  0.2580E+00  0.2869E+01
 -11.746  0.2593E+00  0.2872E+01
 -11.736  0.2605E+00  0.2874E+01
 -11.726  0.2617E+00  0.2877E+01
 -11.716  0.2629E+00  0.2879E+01
 -11.706  0.2641E+00  0.2882E+01
 -11.696  0.2655E+00  0.2885E+01
 -11.686  0.2674E+00  0.2887E+01
 -11.676  0.2693E+00  0.2890E+01
 -11.666  0.2712E+00  0.2893E+01
 -11.656  0.2732E+00  0.2896E+01
 -11.646  0.2751E+00  0.2898E+01
 -11.636  0.2770E+00  0.2901E+01
 -11.626  0.2789E+00  0.2904E+01
 -11.616  0.2808E+00  0.2907E+01
 -11.606  0.2827E+00  0.2909E+01
 -11.596  0.2846E+00  0.2912E+01
 -11.586  0.2865E+00  0.2915E+01
 -11.576  0.2884E+00  0.2918E+01
 -11.566  0.2903E+00  0.2921E+01
 -11.556  0.2922E+00  0.2924E+01
 -11.546  0.2941E+00  0.2927E+01
 -11.536  0.2960E+00  0.2930E+01
 -11.526  0.2979E+00  0.2933E+01
 -11.516  0.2998E+00  0.2936E+01
 -11.506  0.3017E+00  0.2939E+01
 -11.496  0.3036E+00  0.2942E+01
 -11.486  0.3055E+00  0.2945E+01
 -11.476  0.3075E+00  0.2948E+01
 -11.466  0.3094E+00  0.2951E+01
 -11.456  0.3113E+00  0.2954E+01
 -11.446  0.3132E+00  0.2957E+01
 -11.436  0.3151E+00  0.2960E+01
 -11.426  0.3170E+00  0.2963E+01
 -11.416  0.3189E+00  0.2967E+01
 -11.406  0.3208E+00  0.2970E+01
 -11.396  0.3227E+00  0.2973E+01
 -11.386  0.3246E+00  0.2976E+01
 -11.376  0.3265E+00  0.2980E+01
 -11.366  0.3284E+00  0.2983E+01
 -11.356  0.3303E+00  0.2986E+01
 -11.346  0.3322E+00  0.2989E+01
 -11.336  0.3341E+00  0.2993E+01
 -11.326  0.3360E+00  0.2996E+01
 -11.316  0.3379E+00  0.2999E+01
 -11.306  0.3398E+00  0.3003E+01
 -11.296  0.3418E+00  0.3006E+01
 -11.286  0.3437E+00  0.3010E+01
 -11.276  0.3456E+00  0.3013E+01
 -11.266  0.3475E+00  0.3017E+01
 -11.256  0.3494E+00  0.3020E+01
 -11.246  0.3513E+00  0.3024E+01
 -11.236  0.3532E+00  0.3027E+01
 -11.226  0.3551E+00  0.3031E+01
 -11.216  0.3570E+00  0.3034E+01
 -11.206  0.3589E+00  0.3038E+01
 -11.196  0.3608E+00  0.3041E+01
 -11.186  0.3627E+00  0.3045E+01
 -11.176  0.3646E+00  0.3049E+01
 -11.166  0.3665E+00  0.3052E+01
 -11.156  0.3684E+00  0.3056E+01
 -11.146  0.3703E+00  0.3060E+01
 -11.136  0.3722E+00  0.3063E+01
 -11.126  0.3741E+00  0.3067E+01
 -11.116  0.3760E+00  0.3071E+01
 -11.106  0.3780E+00  0.3075E+01
 -11.096  0.3799E+00  0.3078E+01
 -11.086  0.3818E+00  0.3082E+01
 -11.076  0.3837E+00  0.3086E+01
 -11.066  0.3856E+00  0.3090E+01
 -11.056  0.3875E+00  0.3094E+01
 -11.046  0.3894E+00  0.3098E+01
 -11.036  0.3913E+00  0.3102E+01
 -11.026  0.3932E+00  0.3105E+01
 -11.016  0.3951E+00  0.3109E+01
 -11.006  0.3970E+00  0.3113E+01
 -10.996  0.3989E+00  0.3117E+01
 -10.986  0.4008E+00  0.3121E+01
 -10.976  0.4027E+00  0.3125E+01
 -10.966  0.4046E+00  0.3129E+01
 -10.956  0.4065E+00  0.3133E+01
 -10.946  0.4084E+00  0.3138E+01
 -10.936  0.4103E+00  0.3142E+01
 -10.926  0.4123E+00  0.3146E+01
 -10.916  0.4142E+00  0.3150E+01
 -10.906  0.4161E+00  0.3154E+01
 -10.896  0.4180E+00  0.3158E+01
 -10.886  0.4199E+00  0.3162E+01
 -10.876  0.4218E+00  0.3167E+01
 -10.866  0.4237E+00  0.3171E+01
 -10.856  0.4169E+00  0.3175E+01
 -10.846  0.4169E+00  0.3179E+01
 -10.836  0.4168E+00  0.3183E+01
 -10.826  0.4168E+00  0.3188E+01
 -10.816  0.4168E+00  0.3192E+01
 -10.806  0.4167E+00  0.3196E+01
 -10.796  0.4166E+00  0.3200E+01
 -10.786  0.4166E+00  0.3204E+01
 -10.776  0.4165E+00  0.3208E+01
 -10.766  0.4165E+00  0.3213E+01
 -10.756  0.4164E+00  0.3217E+01
 -10.746  0.4163E+00  0.3221E+01
 -10.736  0.4163E+00  0.3225E+01
 -10.726  0.4162E+00  0.3229E+01
 -10.716  0.4162E+00  0.3233E+01
 -10.706  0.4161E+00  0.3238E+01
 -10.696  0.4160E+00  0.3242E+01
 -10.686  0.4160E+00  0.3246E+01
 -10.676  0.4159E+00  0.3250E+01
 -10.666  0.3834E+00  0.3254E+01
 -10.656  0.3833E+00  0.3258E+01
 -10.646  0.3833E+00  0.3262E+01
 -10.636  0.3833E+00  0.3266E+01
 -10.626  0.3833E+00  0.3269E+01
 -10.616  0.3833E+00  0.3273E+01
 -10.606  0.3833E+00  0.3277E+01
 -10.596  0.3832E+00  0.3281E+01
 -10.586  0.3832E+00  0.3285E+01
 -10.576  0.3832E+00  0.3289E+01
 -10.566  0.3832E+00  0.3292E+01
 -10.556  0.3832E+00  0.3296E+01
 -10.546  0.3831E+00  0.3300E+01
 -10.536  0.3831E+00  0.3304E+01
 -10.526  0.3831E+00  0.3308E+01
 -10.516  0.3831E+00  0.3312E+01
 -10.506  0.3831E+00  0.3315E+01
 -10.496  0.3831E+00  0.3319E+01
 -10.486  0.3830E+00  0.3323E+01
 -10.476  0.3830E+00  0.3327E+01
 -10.466  0.3830E+00  0.3331E+01
 -10.456  0.3830E+00  0.3335E+01
 -10.446  0.3830E+00  0.3338E+01
 -10.436  0.3829E+00  0.3342E+01
 -10.426  0.3829E+00  0.3346E+01
 -10.416  0.3829E+00  0.3350E+01
 -10.406  0.3829E+00  0.3354E+01
 -10.396  0.3829E+00  0.3358E+01
 -10.386  0.3829E+00  0.3361E+01
 -10.376  0.3828E+00  0.3365E+01
 -10.366  0.3828E+00  0.3369E+01
 -10.356  0.3828E+00  0.3373E+01
 -10.346  0.3828E+00  0.3377E+01
 -10.336  0.3828E+00  0.3381E+01
 -10.326  0.3827E+00  0.3384E+01
 -10.316  0.3827E+00  0.3388E+01
 -10.306  0.3827E+00  0.3392E+01
 -10.296  0.3827E+00  0.3396E+01
 -10.286  0.3827E+00  0.3400E+01
 -10.276  0.3827E+00  0.3403E+01
 -10.266  0.3826E+00  0.3407E+01
 -10.256  0.3826E+00  0.3411E+01
 -10.246  0.3826E+00  0.3415E+01
 -10.236  0.3826E+00  0.3419E+01
 -10.226  0.3826E+00  0.3423E+01
 -10.216  0.3825E+00  0.3426E+01
 -10.206  0.3825E+00  0.3430E+01
 -10.196  0.3825E+00  0.3434E+01
 -10.186  0.3825E+00  0.3438E+01
 -10.176  0.3825E+00  0.3442E+01
 -10.166  0.3825E+00  0.3446E+01
 -10.156  0.3824E+00  0.3449E+01
 -10.146  0.3827E+00  0.3453E+01
 -10.136  0.3834E+00  0.3457E+01
 -10.126  0.3840E+00  0.3461E+01
 -10.116  0.3847E+00  0.3465E+01
 -10.106  0.3854E+00  0.3469E+01
 -10.096  0.3860E+00  0.3472E+01
 -10.086  0.3867E+00  0.3476E+01
 -10.076  0.3874E+00  0.3480E+01
 -10.066  0.3881E+00  0.3484E+01
 -10.056  0.3887E+00  0.3488E+01
 -10.046  0.3894E+00  0.3492E+01
 -10.036  0.3901E+00  0.3496E+01
 -10.026  0.3908E+00  0.3500E+01
 -10.016  0.3914E+00  0.3504E+01
 -10.006  0.3921E+00  0.3507E+01
  -9.996  0.3928E+00  0.3511E+01
  -9.986  0.3934E+00  0.3515E+01
  -9.976  0.3941E+00  0.3519E+01
  -9.966  0.3948E+00  0.3523E+01
  -9.956  0.3955E+00  0.3527E+01
  -9.946  0.3961E+00  0.3531E+01
  -9.936  0.3968E+00  0.3535E+01
  -9.926  0.3975E+00  0.3539E+01
  -9.916  0.3981E+00  0.3543E+01
  -9.906  0.3988E+00  0.3547E+01
  -9.896  0.3995E+00  0.3551E+01
  -9.886  0.4002E+00  0.3555E+01
  -9.876  0.4008E+00  0.3559E+01
  -9.866  0.4015E+00  0.3563E+01
  -9.856  0.4022E+00  0.3567E+01
  -9.846  0.4028E+00  0.3571E+01
  -9.836  0.4035E+00  0.3575E+01
  -9.826  0.4042E+00  0.3579E+01
  -9.816  0.4049E+00  0.3583E+01
  -9.806  0.4055E+00  0.3587E+01
  -9.796  0.4062E+00  0.3591E+01
  -9.786  0.4069E+00  0.3595E+01
  -9.776  0.4075E+00  0.3599E+01
  -9.766  0.4082E+00  0.3603E+01
  -9.756  0.4089E+00  0.3608E+01
  -9.746  0.4096E+00  0.3612E+01
  -9.736  0.4102E+00  0.3616E+01
  -9.726  0.4109E+00  0.3620E+01
  -9.716  0.4116E+00  0.3624E+01
  -9.706  0.4122E+00  0.3628E+01
  -9.696  0.4129E+00  0.3632E+01
  -9.686  0.4136E+00  0.3636E+01
  -9.676  0.4139E+00  0.3640E+01
  -9.666  0.4142E+00  0.3645E+01
  -9.656  0.4146E+00  0.3649E+01
  -9.646  0.4149E+00  0.3653E+01
  -9.636  0.4153E+00  0.3657E+01
  -9.626  0.4156E+00  0.3661E+01
  -9.616  0.4159E+00  0.3665E+01
  -9.606  0.4163E+00  0.3670E+01
  -9.596  0.4166E+00  0.3674E+01
  -9.586  0.4170E+00  0.3678E+01
  -9.576  0.4173E+00  0.3682E+01
  -9.566  0.4177E+00  0.3686E+01
  -9.556  0.4180E+00  0.3690E+01
  -9.546  0.4183E+00  0.3695E+01
  -9.536  0.4187E+00  0.3699E+01
  -9.526  0.4190E+00  0.3703E+01
  -9.516  0.4194E+00  0.3707E+01
  -9.506  0.4197E+00  0.3711E+01
  -9.496  0.4200E+00  0.3716E+01
  -9.486  0.4204E+00  0.3720E+01
  -9.476  0.4207E+00  0.3724E+01
  -9.466  0.4211E+00  0.3728E+01
  -9.456  0.4214E+00  0.3732E+01
  -9.446  0.4217E+00  0.3737E+01
  -9.436  0.4221E+00  0.3741E+01
  -9.426  0.4224E+00  0.3745E+01
  -9.416  0.4240E+00  0.3749E+01
  -9.406  0.4257E+00  0.3754E+01
  -9.396  0.4274E+00  0.3758E+01
  -9.386  0.4292E+00  0.3762E+01
  -9.376  0.4309E+00  0.3766E+01
  -9.366  0.4326E+00  0.3771E+01
  -9.356  0.4343E+00  0.3775E+01
  -9.346  0.4361E+00  0.3779E+01
  -9.336  0.4378E+00  0.3784E+01
  -9.326  0.4395E+00  0.3788E+01
  -9.316  0.4412E+00  0.3793E+01
  -9.306  0.4429E+00  0.3797E+01
  -9.296  0.4447E+00  0.3801E+01
  -9.286  0.4464E+00  0.3806E+01
  -9.276  0.4481E+00  0.3810E+01
  -9.266  0.4498E+00  0.3815E+01
  -9.256  0.4516E+00  0.3819E+01
  -9.246  0.4533E+00  0.3824E+01
  -9.236  0.4544E+00  0.3828E+01
  -9.226  0.4547E+00  0.3833E+01
  -9.216  0.4550E+00  0.3837E+01
  -9.206  0.4553E+00  0.3842E+01
  -9.196  0.4556E+00  0.3847E+01
  -9.186  0.4559E+00  0.3851E+01
  -9.176  0.4563E+00  0.3856E+01
  -9.166  0.4566E+00  0.3860E+01
  -9.156  0.4569E+00  0.3865E+01
  -9.146  0.4572E+00  0.3869E+01
  -9.136  0.4575E+00  0.3874E+01
  -9.126  0.4578E+00  0.3879E+01
  -9.116  0.4581E+00  0.3883E+01
  -9.106  0.4584E+00  0.3888E+01
  -9.096  0.4587E+00  0.3892E+01
  -9.086  0.4591E+00  0.3897E+01
  -9.076  0.4594E+00  0.3901E+01
  -9.066  0.4597E+00  0.3906E+01
  -9.056  0.4600E+00  0.3911E+01
  -9.046  0.4603E+00  0.3915E+01
  -9.036  0.4606E+00  0.3920E+01
  -9.026  0.4609E+00  0.3924E+01
  -9.016  0.4612E+00  0.3929E+01
  -9.006  0.4615E+00  0.3934E+01
  -8.996  0.4619E+00  0.3938E+01
  -8.986  0.4622E+00  0.3943E+01
  -8.976  0.4625E+00  0.3948E+01
  -8.966  0.4628E+00  0.3952E+01
  -8.956  0.4631E+00  0.3957E+01
  -8.946  0.4634E+00  0.3961E+01
  -8.936  0.4640E+00  0.3966E+01
  -8.926  0.4647E+00  0.3971E+01
  -8.916  0.4653E+00  0.3975E+01
  -8.906  0.4660E+00  0.3980E+01
  -8.896  0.4667E+00  0.3985E+01
  -8.886  0.4674E+00  0.3989E+01
  -8.876  0.4680E+00  0.3994E+01
  -8.866  0.4687E+00  0.3999E+01
  -8.856  0.4694E+00  0.4003E+01
  -8.846  0.4701E+00  0.4008E+01
  -8.836  0.4707E+00  0.4013E+01
  -8.826  0.4714E+00  0.4018E+01
  -8.816  0.4721E+00  0.4022E+01
  -8.806  0.4728E+00  0.4027E+01
  -8.796  0.4795E+00  0.4032E+01
  -8.786  0.5018E+00  0.4037E+01
  -8.776  0.5241E+00  0.4042E+01
  -8.766  0.5464E+00  0.4047E+01
  -8.756  0.5687E+00  0.4053E+01
  -8.746  0.5910E+00  0.4058E+01
  -8.736  0.6133E+00  0.4065E+01
  -8.726  0.6356E+00  0.4071E+01
  -8.716  0.6579E+00  0.4077E+01
  -8.706  0.6802E+00  0.4084E+01
  -8.696  0.7025E+00  0.4091E+01
  -8.686  0.7248E+00  0.4098E+01
  -8.676  0.7471E+00  0.4105E+01
  -8.666  0.7923E+00  0.4113E+01
  -8.656  0.8144E+00  0.4121E+01
  -8.646  0.8365E+00  0.4129E+01
  -8.636  0.8587E+00  0.4138E+01
  -8.626  0.8808E+00  0.4146E+01
  -8.616  0.9029E+00  0.4155E+01
  -8.606  0.9256E+00  0.4164E+01
  -8.596  0.7260E+00  0.4172E+01
  -8.586  0.7304E+00  0.4180E+01
  -8.576  0.7347E+00  0.4187E+01
  -8.566  0.7391E+00  0.4194E+01
  -8.556  0.7434E+00  0.4202E+01
  -8.546  0.7477E+00  0.4209E+01
  -8.536  0.7521E+00  0.4217E+01
  -8.526  0.7564E+00  0.4224E+01
  -8.516  0.7608E+00  0.4232E+01
  -8.506  0.7651E+00  0.4239E+01
  -8.496  0.7695E+00  0.4247E+01
  -8.486  0.7738E+00  0.4255E+01
  -8.476  0.7782E+00  0.4263E+01
  -8.466  0.7825E+00  0.4270E+01
  -8.456  0.7869E+00  0.4278E+01
  -8.446  0.7912E+00  0.4286E+01
  -8.436  0.7956E+00  0.4294E+01
  -8.426  0.7999E+00  0.4302E+01
  -8.416  0.8043E+00  0.4310E+01
  -8.406  0.8086E+00  0.4318E+01
  -8.396  0.8130E+00  0.4326E+01
  -8.386  0.8173E+00  0.4334E+01
  -8.376  0.8217E+00  0.4343E+01
  -8.366  0.8260E+00  0.4351E+01
  -8.356  0.8304E+00  0.4359E+01
  -8.346  0.8347E+00  0.4367E+01
  -8.336  0.8391E+00  0.4376E+01
  -8.326  0.8434E+00  0.4384E+01
  -8.316  0.8478E+00  0.4393E+01
  -8.306  0.8521E+00  0.4401E+01
  -8.296  0.8565E+00  0.4410E+01
  -8.286  0.8608E+00  0.4418E+01
  -8.276  0.8652E+00  0.4427E+01
  -8.266  0.8695E+00  0.4436E+01
  -8.256  0.8739E+00  0.4444E+01
  -8.246  0.8782E+00  0.4453E+01
  -8.236  0.8826E+00  0.4462E+01
  -8.226  0.8869E+00  0.4471E+01
  -8.216  0.8913E+00  0.4480E+01
  -8.206  0.8958E+00  0.4489E+01
  -8.196  0.9004E+00  0.4498E+01
  -8.186  0.9050E+00  0.4507E+01
  -8.176  0.9096E+00  0.4516E+01
  -8.166  0.9142E+00  0.4525E+01
  -8.156  0.9188E+00  0.4534E+01
  -8.146  0.9234E+00  0.4543E+01
  -8.136  0.9280E+00  0.4552E+01
  -8.126  0.9326E+00  0.4562E+01
  -8.116  0.9372E+00  0.4571E+01
  -8.106  0.9418E+00  0.4580E+01
  -8.096  0.1058E+01  0.4590E+01
  -8.086  0.1069E+01  0.4601E+01
  -8.076  0.1079E+01  0.4612E+01
  -8.066  0.1089E+01  0.4622E+01
  -8.056  0.1100E+01  0.4633E+01
  -8.046  0.1110E+01  0.4644E+01
  -8.036  0.1121E+01  0.4656E+01
  -8.026  0.1131E+01  0.4667E+01
  -8.016  0.1138E+01  0.4678E+01
  -8.006  0.1134E+01  0.4690E+01
  -7.996  0.1131E+01  0.4701E+01
  -7.986  0.1128E+01  0.4712E+01
  -7.976  0.1124E+01  0.4723E+01
  -7.966  0.1121E+01  0.4735E+01
  -7.956  0.1118E+01  0.4746E+01
  -7.946  0.1114E+01  0.4757E+01
  -7.936  0.1111E+01  0.4768E+01
  -7.926  0.1108E+01  0.4779E+01
  -7.916  0.1104E+01  0.4790E+01
  -7.906  0.1101E+01  0.4801E+01
  -7.896  0.1098E+01  0.4812E+01
  -7.886  0.1094E+01  0.4823E+01
  -7.876  0.1091E+01  0.4834E+01
  -7.866  0.1088E+01  0.4845E+01
  -7.856  0.1084E+01  0.4856E+01
  -7.846  0.1081E+01  0.4867E+01
  -7.836  0.1078E+01  0.4878E+01
  -7.826  0.1074E+01  0.4888E+01
  -7.816  0.1071E+01  0.4899E+01
  -7.806  0.1068E+01  0.4910E+01
  -7.796  0.1064E+01  0.4920E+01
  -7.786  0.1061E+01  0.4931E+01
  -7.776  0.1058E+01  0.4942E+01
  -7.766  0.1052E+01  0.4952E+01
  -7.756  0.1045E+01  0.4963E+01
  -7.746  0.1037E+01  0.4973E+01
  -7.736  0.1030E+01  0.4983E+01
  -7.726  0.1022E+01  0.4994E+01
  -7.716  0.1014E+01  0.5004E+01
  -7.706  0.1007E+01  0.5014E+01
  -7.696  0.9991E+00  0.5024E+01
  -7.686  0.9915E+00  0.5034E+01
  -7.676  0.9839E+00  0.5044E+01
  -7.666  0.9763E+00  0.5054E+01
  -7.656  0.9687E+00  0.5063E+01
  -7.646  0.9611E+00  0.5073E+01
  -7.636  0.9535E+00  0.5083E+01
  -7.626  0.9459E+00  0.5092E+01
  -7.616  0.7353E+00  0.5101E+01
  -7.606  0.7466E+00  0.5108E+01
  -7.596  0.7788E+00  0.5116E+01
  -7.586  0.8110E+00  0.5124E+01
  -7.576  0.8432E+00  0.5132E+01
  -7.566  0.8755E+00  0.5141E+01
  -7.556  0.9077E+00  0.5150E+01
  -7.546  0.9399E+00  0.5159E+01
  -7.536  0.9721E+00  0.5169E+01
  -7.526  0.1004E+01  0.5179E+01
  -7.516  0.1037E+01  0.5189E+01
  -7.506  0.1069E+01  0.5199E+01
  -7.496  0.1101E+01  0.5210E+01
  -7.486  0.1133E+01  0.5221E+01
  -7.476  0.1165E+01  0.5233E+01
  -7.466  0.1198E+01  0.5245E+01
  -7.456  0.1230E+01  0.5257E+01
  -7.446  0.1273E+01  0.5269E+01
  -7.436  0.8461E+00  0.5279E+01
  -7.426  0.8496E+00  0.5287E+01
  -7.416  0.8530E+00  0.5296E+01
  -7.406  0.8564E+00  0.5304E+01
  -7.396  0.8599E+00  0.5313E+01
  -7.386  0.8633E+00  0.5322E+01
  -7.376  0.8668E+00  0.5330E+01
  -7.366  0.8702E+00  0.5339E+01
  -7.356  0.8737E+00  0.5348E+01
  -7.346  0.8771E+00  0.5356E+01
  -7.336  0.8806E+00  0.5365E+01
  -7.326  0.8840E+00  0.5374E+01
  -7.316  0.8874E+00  0.5383E+01
  -7.306  0.8909E+00  0.5392E+01
  -7.296  0.8943E+00  0.5401E+01
  -7.286  0.8978E+00  0.5410E+01
  -7.276  0.9012E+00  0.5419E+01
  -7.266  0.9047E+00  0.5428E+01
  -7.256  0.9081E+00  0.5437E+01
  -7.246  0.9115E+00  0.5446E+01
  -7.236  0.9150E+00  0.5455E+01
  -7.226  0.9184E+00  0.5464E+01
  -7.216  0.9219E+00  0.5473E+01
  -7.206  0.9253E+00  0.5482E+01
  -7.196  0.9288E+00  0.5492E+01
  -7.186  0.9322E+00  0.5501E+01
  -7.176  0.9356E+00  0.5510E+01
  -7.166  0.9391E+00  0.5520E+01
  -7.156  0.9425E+00  0.5529E+01
  -7.146  0.9460E+00  0.5539E+01
  -7.136  0.9518E+00  0.5548E+01
  -7.126  0.1031E+01  0.5558E+01
  -7.116  0.1110E+01  0.5569E+01
  -7.106  0.1190E+01  0.5580E+01
  -7.096  0.1269E+01  0.5593E+01
  -7.086  0.1348E+01  0.5606E+01
  -7.076  0.1427E+01  0.5619E+01
  -7.066  0.1483E+01  0.5634E+01
  -7.056  0.1336E+01  0.5648E+01
  -7.046  0.1189E+01  0.5661E+01
  -7.036  0.1042E+01  0.5672E+01
  -7.026  0.8944E+00  0.5682E+01
  -7.016  0.7472E+00  0.5690E+01
  -7.006  0.6000E+00  0.5697E+01
  -6.996  0.4528E+00  0.5702E+01
  -6.986  0.3056E+00  0.5706E+01
  -6.976  0.2428E+00  0.5708E+01
  -6.966  0.2403E+00  0.5711E+01
  -6.956  0.2379E+00  0.5713E+01
  -6.946  0.2355E+00  0.5715E+01
  -6.936  0.2330E+00  0.5718E+01
  -6.926  0.2306E+00  0.5720E+01
  -6.916  0.2281E+00  0.5722E+01
  -6.906  0.2257E+00  0.5725E+01
  -6.896  0.2232E+00  0.5727E+01
  -6.886  0.2208E+00  0.5729E+01
  -6.876  0.2184E+00  0.5731E+01
  -6.866  0.2159E+00  0.5733E+01
  -6.856  0.2135E+00  0.5736E+01
  -6.846  0.2110E+00  0.5738E+01
  -6.836  0.2086E+00  0.5740E+01
  -6.826  0.2061E+00  0.5742E+01
  -6.816  0.2037E+00  0.5744E+01
  -6.806  0.2013E+00  0.5746E+01
  -6.796  0.1988E+00  0.5748E+01
  -6.786  0.1964E+00  0.5750E+01
  -6.776  0.1939E+00  0.5752E+01
  -6.766  0.1915E+00  0.5754E+01
  -6.756  0.1890E+00  0.5756E+01
  -6.746  0.1866E+00  0.5758E+01
  -6.736  0.1841E+00  0.5759E+01
  -6.726  0.1817E+00  0.5761E+01
  -6.716  0.1793E+00  0.5763E+01
  -6.706  0.1768E+00  0.5765E+01
  -6.696  0.1744E+00  0.5767E+01
  -6.686  0.1719E+00  0.5768E+01
  -6.676  0.1695E+00  0.5770E+01
  -6.666  0.1670E+00  0.5772E+01
  -6.656  0.1646E+00  0.5773E+01
  -6.646  0.1622E+00  0.5775E+01
  -6.636  0.1597E+00  0.5777E+01
  -6.626  0.1573E+00  0.5778E+01
  -6.616  0.1548E+00  0.5780E+01
  -6.606  0.1524E+00  0.5781E+01
  -6.596  0.1499E+00  0.5783E+01
  -6.586  0.1475E+00  0.5784E+01
  -6.576  0.1451E+00  0.5786E+01
  -6.566  0.1426E+00  0.5787E+01
  -6.556  0.1402E+00  0.5789E+01
  -6.546  0.1377E+00  0.5790E+01
  -6.536  0.1353E+00  0.5791E+01
  -6.526  0.1328E+00  0.5793E+01
  -6.516  0.1304E+00  0.5794E+01
  -6.506  0.1299E+00  0.5795E+01
  -6.496  0.1830E+00  0.5797E+01
  -6.486  0.2399E+00  0.5799E+01
  -6.476  0.2969E+00  0.5802E+01
  -6.466  0.3538E+00  0.5805E+01
  -6.456  0.4107E+00  0.5809E+01
  -6.446  0.4676E+00  0.5813E+01
  -6.436  0.5246E+00  0.5818E+01
  -6.426  0.5815E+00  0.5824E+01
  -6.416  0.6384E+00  0.5830E+01
  -6.406  0.6953E+00  0.5836E+01
  -6.396  0.7523E+00  0.5844E+01
  -6.386  0.8092E+00  0.5852E+01
  -6.376  0.8661E+00  0.5860E+01
  -6.366  0.9231E+00  0.5869E+01
  -6.356  0.9800E+00  0.5878E+01
  -6.346  0.1037E+01  0.5888E+01
  -6.336  0.1094E+01  0.5899E+01
  -6.326  0.1158E+01  0.5910E+01
  -6.316  0.1410E+01  0.5923E+01
  -6.306  0.1662E+01  0.5939E+01
  -6.296  0.1914E+01  0.5956E+01
  -6.286  0.2167E+01  0.5977E+01
  -6.276  0.2419E+01  0.6000E+01
  -6.266  0.2671E+01  0.6025E+01
  -6.256  0.2923E+01  0.6053E+01
  -6.246  0.8677E+00  0.6075E+01
  -6.236  0.8618E+00  0.6084E+01
  -6.226  0.8560E+00  0.6092E+01
  -6.216  0.8501E+00  0.6101E+01
  -6.206  0.8443E+00  0.6109E+01
  -6.196  0.8384E+00  0.6118E+01
  -6.186  0.8326E+00  0.6126E+01
  -6.176  0.8267E+00  0.6134E+01
  -6.166  0.8209E+00  0.6143E+01
  -6.156  0.8151E+00  0.6151E+01
  -6.146  0.8092E+00  0.6159E+01
  -6.136  0.8034E+00  0.6167E+01
  -6.126  0.7975E+00  0.6175E+01
  -6.116  0.7917E+00  0.6183E+01
  -6.106  0.7858E+00  0.6191E+01
  -6.096  0.7800E+00  0.6199E+01
  -6.086  0.7741E+00  0.6206E+01
  -6.076  0.7683E+00  0.6214E+01
  -6.066  0.7624E+00  0.6222E+01
  -6.056  0.7566E+00  0.6229E+01
  -6.046  0.7507E+00  0.6237E+01
  -6.036  0.7449E+00  0.6244E+01
  -6.026  0.7390E+00  0.6252E+01
  -6.016  0.7332E+00  0.6259E+01
  -6.006  0.7273E+00  0.6267E+01
  -5.996  0.7215E+00  0.6274E+01
  -5.986  0.7156E+00  0.6281E+01
  -5.976  0.7098E+00  0.6288E+01
  -5.966  0.7039E+00  0.6295E+01
  -5.956  0.6981E+00  0.6302E+01
  -5.946  0.6922E+00  0.6309E+01
  -5.936  0.6864E+00  0.6316E+01
  -5.926  0.6805E+00  0.6323E+01
  -5.916  0.6747E+00  0.6330E+01
  -5.906  0.6690E+00  0.6336E+01
  -5.896  0.6634E+00  0.6343E+01
  -5.886  0.6579E+00  0.6350E+01
  -5.876  0.6523E+00  0.6356E+01
  -5.866  0.6467E+00  0.6363E+01
  -5.856  0.6411E+00  0.6369E+01
  -5.846  0.6355E+00  0.6375E+01
  -5.836  0.6299E+00  0.6382E+01
  -5.826  0.6243E+00  0.6388E+01
  -5.816  0.6188E+00  0.6394E+01
  -5.806  0.6132E+00  0.6400E+01
  -5.796  0.6083E+00  0.6407E+01
  -5.786  0.6074E+00  0.6413E+01
  -5.776  0.6064E+00  0.6419E+01
  -5.766  0.6055E+00  0.6425E+01
  -5.756  0.6046E+00  0.6431E+01
  -5.746  0.6037E+00  0.6437E+01
  -5.736  0.6027E+00  0.6443E+01
  -5.726  0.6018E+00  0.6449E+01
  -5.716  0.6009E+00  0.6455E+01
  -5.706  0.6000E+00  0.6461E+01
  -5.696  0.5990E+00  0.6467E+01
  -5.686  0.5981E+00  0.6473E+01
  -5.676  0.5972E+00  0.6479E+01
  -5.666  0.5963E+00  0.6485E+01
  -5.656  0.5954E+00  0.6491E+01
  -5.646  0.5944E+00  0.6497E+01
  -5.636  0.5935E+00  0.6503E+01
  -5.626  0.5926E+00  0.6509E+01
  -5.616  0.5917E+00  0.6515E+01
  -5.606  0.5907E+00  0.6520E+01
  -5.596  0.5898E+00  0.6526E+01
  -5.586  0.5889E+00  0.6532E+01
  -5.576  0.5880E+00  0.6538E+01
  -5.566  0.5870E+00  0.6544E+01
  -5.556  0.5861E+00  0.6550E+01
  -5.546  0.5852E+00  0.6556E+01
  -5.536  0.5843E+00  0.6562E+01
  -5.526  0.5833E+00  0.6567E+01
  -5.516  0.5824E+00  0.6573E+01
  -5.506  0.5815E+00  0.6579E+01
  -5.496  0.5806E+00  0.6585E+01
  -5.486  0.5796E+00  0.6591E+01
  -5.476  0.5787E+00  0.6596E+01
  -5.466  0.5778E+00  0.6602E+01
  -5.456  0.5769E+00  0.6608E+01
  -5.446  0.5760E+00  0.6614E+01
  -5.436  0.5750E+00  0.6620E+01
  -5.426  0.5741E+00  0.6625E+01
  -5.416  0.5732E+00  0.6631E+01
  -5.406  0.5723E+00  0.6637E+01
  -5.396  0.5713E+00  0.6642E+01
  -5.386  0.5704E+00  0.6648E+01
  -5.376  0.5695E+00  0.6654E+01
  -5.366  0.5697E+00  0.6660E+01
  -5.356  0.5728E+00  0.6665E+01
  -5.346  0.5759E+00  0.6671E+01
  -5.336  0.5789E+00  0.6677E+01
  -5.326  0.5820E+00  0.6683E+01
  -5.316  0.5851E+00  0.6688E+01
  -5.306  0.5882E+00  0.6694E+01
  -5.296  0.5912E+00  0.6700E+01
  -5.286  0.5943E+00  0.6706E+01
  -5.276  0.5974E+00  0.6712E+01
  -5.266  0.6005E+00  0.6718E+01
  -5.256  0.6035E+00  0.6724E+01
  -5.246  0.5990E+00  0.6730E+01
  -5.236  0.5977E+00  0.6736E+01
  -5.226  0.5964E+00  0.6742E+01
  -5.216  0.5952E+00  0.6748E+01
  -5.206  0.5939E+00  0.6754E+01
  -5.196  0.5927E+00  0.6760E+01
  -5.186  0.5914E+00  0.6766E+01
  -5.176  0.5901E+00  0.6772E+01
  -5.166  0.5889E+00  0.6778E+01
  -5.156  0.5876E+00  0.6784E+01
  -5.146  0.5863E+00  0.6789E+01
  -5.136  0.5851E+00  0.6795E+01
  -5.126  0.5838E+00  0.6801E+01
  -5.116  0.5826E+00  0.6807E+01
  -5.106  0.5813E+00  0.6813E+01
  -5.096  0.5800E+00  0.6819E+01
  -5.086  0.5788E+00  0.6824E+01
  -5.076  0.5775E+00  0.6830E+01
  -5.066  0.5763E+00  0.6836E+01
  -5.056  0.5750E+00  0.6842E+01
  -5.046  0.5737E+00  0.6847E+01
  -5.036  0.5725E+00  0.6853E+01
  -5.026  0.5712E+00  0.6859E+01
  -5.016  0.5700E+00  0.6865E+01
  -5.006  0.5687E+00  0.6870E+01
  -4.996  0.5674E+00  0.6876E+01
  -4.986  0.5662E+00  0.6882E+01
  -4.976  0.5649E+00  0.6887E+01
  -4.966  0.5636E+00  0.6893E+01
  -4.956  0.5624E+00  0.6899E+01
  -4.946  0.5611E+00  0.6904E+01
  -4.936  0.5603E+00  0.6910E+01
  -4.926  0.5595E+00  0.6915E+01
  -4.916  0.5586E+00  0.6921E+01
  -4.906  0.5578E+00  0.6926E+01
  -4.896  0.5570E+00  0.6932E+01
  -4.886  0.5562E+00  0.6938E+01
  -4.876  0.6015E+00  0.6944E+01
  -4.866  0.5989E+00  0.6950E+01
  -4.856  0.5963E+00  0.6956E+01
  -4.846  0.5937E+00  0.6962E+01
  -4.836  0.5911E+00  0.6967E+01
  -4.826  0.5885E+00  0.6973E+01
  -4.816  0.5859E+00  0.6979E+01
  -4.806  0.5833E+00  0.6985E+01
  -4.796  0.5807E+00  0.6991E+01
  -4.786  0.5781E+00  0.6997E+01
  -4.776  0.5755E+00  0.7002E+01
  -4.766  0.5729E+00  0.7008E+01
  -4.756  0.5703E+00  0.7014E+01
  -4.746  0.5677E+00  0.7020E+01
  -4.736  0.5651E+00  0.7025E+01
  -4.726  0.5625E+00  0.7031E+01
  -4.716  0.5599E+00  0.7037E+01
  -4.706  0.5573E+00  0.7042E+01
  -4.696  0.5547E+00  0.7048E+01
  -4.686  0.5521E+00  0.7053E+01
  -4.676  0.5495E+00  0.7059E+01
  -4.666  0.5469E+00  0.7064E+01
  -4.656  0.5443E+00  0.7070E+01
  -4.646  0.5417E+00  0.7075E+01
  -4.636  0.5391E+00  0.7081E+01
  -4.626  0.5365E+00  0.7086E+01
  -4.616  0.5339E+00  0.7091E+01
  -4.606  0.5313E+00  0.7097E+01
  -4.596  0.5287E+00  0.7102E+01
  -4.586  0.5261E+00  0.7107E+01
  -4.576  0.6464E+00  0.7112E+01
  -4.566  0.6378E+00  0.7119E+01
  -4.556  0.6292E+00  0.7125E+01
  -4.546  0.6206E+00  0.7131E+01
  -4.536  0.6121E+00  0.7138E+01
  -4.526  0.6035E+00  0.7144E+01
  -4.516  0.5949E+00  0.7150E+01
  -4.506  0.5863E+00  0.7156E+01
  -4.496  0.5777E+00  0.7161E+01
  -4.486  0.5691E+00  0.7167E+01
  -4.476  0.5605E+00  0.7173E+01
  -4.466  0.5519E+00  0.7178E+01
  -4.456  0.5433E+00  0.7184E+01
  -4.446  0.5347E+00  0.7189E+01
  -4.436  0.5261E+00  0.7195E+01
  -4.426  0.5175E+00  0.7200E+01
  -4.416  0.5089E+00  0.7205E+01
  -4.406  0.5003E+00  0.7210E+01
  -4.396  0.4917E+00  0.7215E+01
  -4.386  0.4832E+00  0.7220E+01
  -4.376  0.4746E+00  0.7225E+01
  -4.366  0.4665E+00  0.7229E+01
  -4.356  0.4587E+00  0.7234E+01
  -4.346  0.4509E+00  0.7238E+01
  -4.336  0.4431E+00  0.7243E+01
  -4.326  0.4353E+00  0.7247E+01
  -4.316  0.4274E+00  0.7252E+01
  -4.306  0.4196E+00  0.7256E+01
  -4.296  0.4118E+00  0.7260E+01
  -4.286  0.4040E+00  0.7264E+01
  -4.276  0.3961E+00  0.7268E+01
  -4.266  0.3883E+00  0.7272E+01
  -4.256  0.3805E+00  0.7276E+01
  -4.246  0.3727E+00  0.7280E+01
  -4.236  0.3668E+00  0.7283E+01
  -4.226  0.3683E+00  0.7287E+01
  -4.216  0.3697E+00  0.7291E+01
  -4.206  0.3712E+00  0.7294E+01
  -4.196  0.3726E+00  0.7298E+01
  -4.186  0.3741E+00  0.7302E+01
  -4.176  0.3755E+00  0.7306E+01
  -4.166  0.3770E+00  0.7309E+01
  -4.156  0.3784E+00  0.7313E+01
  -4.146  0.3799E+00  0.7317E+01
  -4.136  0.3813E+00  0.7321E+01
  -4.126  0.3828E+00  0.7325E+01
  -4.116  0.3842E+00  0.7328E+01
  -4.106  0.3857E+00  0.7332E+01
  -4.096  0.3871E+00  0.7336E+01
  -4.086  0.3886E+00  0.7340E+01
  -4.076  0.3900E+00  0.7344E+01
  -4.066  0.3914E+00  0.7348E+01
  -4.056  0.3929E+00  0.7352E+01
  -4.046  0.3943E+00  0.7356E+01
  -4.036  0.3958E+00  0.7360E+01
  -4.026  0.3972E+00  0.7364E+01
  -4.016  0.3987E+00  0.7367E+01
  -4.006  0.4001E+00  0.7371E+01
  -3.996  0.4016E+00  0.7375E+01
  -3.986  0.4030E+00  0.7380E+01
  -3.976  0.4045E+00  0.7384E+01
  -3.966  0.4059E+00  0.7388E+01
  -3.956  0.4074E+00  0.7392E+01
  -3.946  0.4088E+00  0.7396E+01
  -3.936  0.4103E+00  0.7400E+01
  -3.926  0.4117E+00  0.7404E+01
  -3.916  0.4132E+00  0.7408E+01
  -3.906  0.4147E+00  0.7412E+01
  -3.896  0.4165E+00  0.7416E+01
  -3.886  0.4184E+00  0.7421E+01
  -3.876  0.4203E+00  0.7425E+01
  -3.866  0.4222E+00  0.7429E+01
  -3.856  0.4241E+00  0.7433E+01
  -3.846  0.4260E+00  0.7437E+01
  -3.836  0.4279E+00  0.7442E+01
  -3.826  0.4297E+00  0.7446E+01
  -3.816  0.4338E+00  0.7450E+01
  -3.806  0.4389E+00  0.7455E+01
  -3.796  0.4439E+00  0.7459E+01
  -3.786  0.4490E+00  0.7464E+01
  -3.776  0.4540E+00  0.7468E+01
  -3.766  0.4591E+00  0.7473E+01
  -3.756  0.4641E+00  0.7477E+01
  -3.746  0.4691E+00  0.7482E+01
  -3.736  0.4742E+00  0.7487E+01
  -3.726  0.4792E+00  0.7491E+01
  -3.716  0.4843E+00  0.7496E+01
  -3.706  0.4893E+00  0.7501E+01
  -3.696  0.4944E+00  0.7506E+01
  -3.686  0.4994E+00  0.7511E+01
  -3.676  0.5045E+00  0.7516E+01
  -3.666  0.5095E+00  0.7521E+01
  -3.656  0.5146E+00  0.7526E+01
  -3.646  0.5196E+00  0.7531E+01
  -3.636  0.5247E+00  0.7537E+01
  -3.626  0.1339E+01  0.7549E+01
  -3.616  0.1244E+01  0.7562E+01
  -3.606  0.1149E+01  0.7574E+01
  -3.596  0.1054E+01  0.7585E+01
  -3.586  0.9596E+00  0.7595E+01
  -3.576  0.8647E+00  0.7605E+01
  -3.566  0.7699E+00  0.7613E+01
  -3.556  0.6751E+00  0.7620E+01
  -3.546  0.5802E+00  0.7626E+01
  -3.536  0.4854E+00  0.7632E+01
  -3.526  0.4094E+00  0.7636E+01
  -3.516  0.4061E+00  0.7640E+01
  -3.506  0.4027E+00  0.7644E+01
  -3.496  0.3993E+00  0.7648E+01
  -3.486  0.3959E+00  0.7652E+01
  -3.476  0.3926E+00  0.7656E+01
  -3.466  0.3892E+00  0.7660E+01
  -3.456  0.3858E+00  0.7664E+01
  -3.446  0.3824E+00  0.7668E+01
  -3.436  0.3791E+00  0.7671E+01
  -3.426  0.3757E+00  0.7675E+01
  -3.416  0.3723E+00  0.7679E+01
  -3.406  0.3689E+00  0.7683E+01
  -3.396  0.3656E+00  0.7686E+01
  -3.386  0.3622E+00  0.7690E+01
  -3.376  0.3588E+00  0.7694E+01
  -3.366  0.3554E+00  0.7697E+01
  -3.356  0.3520E+00  0.7701E+01
  -3.346  0.3487E+00  0.7704E+01
  -3.336  0.3453E+00  0.7708E+01
  -3.326  0.3419E+00  0.7711E+01
  -3.316  0.3385E+00  0.7714E+01
  -3.306  0.3352E+00  0.7718E+01
  -3.296  0.3318E+00  0.7721E+01
  -3.286  0.3284E+00  0.7724E+01
  -3.276  0.3250E+00  0.7728E+01
  -3.266  0.3217E+00  0.7731E+01
  -3.256  0.3183E+00  0.7734E+01
  -3.246  0.3149E+00  0.7737E+01
  -3.236  0.3115E+00  0.7740E+01
  -3.226  0.3082E+00  0.7744E+01
  -3.216  0.3048E+00  0.7747E+01
  -3.206  0.3014E+00  0.7750E+01
  -3.196  0.2980E+00  0.7753E+01
  -3.186  0.2947E+00  0.7756E+01
  -3.176  0.2913E+00  0.7759E+01
  -3.166  0.2879E+00  0.7761E+01
  -3.156  0.2845E+00  0.7764E+01
  -3.146  0.2812E+00  0.7767E+01
  -3.136  0.2778E+00  0.7770E+01
  -3.126  0.2744E+00  0.7773E+01
  -3.116  0.2710E+00  0.7775E+01
  -3.106  0.2676E+00  0.7778E+01
  -3.096  0.2643E+00  0.7781E+01
  -3.086  0.2609E+00  0.7783E+01
  -3.076  0.2575E+00  0.7786E+01
  -3.066  0.2541E+00  0.7789E+01
  -3.056  0.2508E+00  0.7791E+01
  -3.046  0.2474E+00  0.7794E+01
  -3.036  0.2440E+00  0.7796E+01
  -3.026  0.2406E+00  0.7798E+01
  -3.016  0.2373E+00  0.7801E+01
  -3.006  0.2339E+00  0.7803E+01
  -2.996  0.2305E+00  0.7806E+01
  -2.986  0.2271E+00  0.7808E+01
  -2.976  0.2238E+00  0.7810E+01
  -2.966  0.2204E+00  0.7812E+01
  -2.956  0.2170E+00  0.7814E+01
  -2.946  0.2136E+00  0.7817E+01
  -2.936  0.2103E+00  0.7819E+01
  -2.926  0.2085E+00  0.7821E+01
  -2.916  0.2099E+00  0.7823E+01
  -2.906  0.2112E+00  0.7825E+01
  -2.896  0.2126E+00  0.7827E+01
  -2.886  0.2139E+00  0.7829E+01
  -2.876  0.2153E+00  0.7831E+01
  -2.866  0.2167E+00  0.7834E+01
  -2.856  0.2180E+00  0.7836E+01
  -2.846  0.2194E+00  0.7838E+01
  -2.836  0.2207E+00  0.7840E+01
  -2.826  0.2221E+00  0.7842E+01
  -2.816  0.2235E+00  0.7845E+01
  -2.806  0.2248E+00  0.7847E+01
  -2.796  0.2262E+00  0.7849E+01
  -2.786  0.2275E+00  0.7851E+01
  -2.776  0.2289E+00  0.7854E+01
  -2.766  0.2303E+00  0.7856E+01
  -2.756  0.2316E+00  0.7858E+01
  -2.746  0.2330E+00  0.7861E+01
  -2.736  0.2343E+00  0.7863E+01
  -2.726  0.2357E+00  0.7865E+01
  -2.716  0.2371E+00  0.7868E+01
  -2.706  0.2384E+00  0.7870E+01
  -2.696  0.2398E+00  0.7872E+01
  -2.686  0.2411E+00  0.7875E+01
  -2.676  0.2425E+00  0.7877E+01
  -2.666  0.2439E+00  0.7880E+01
  -2.656  0.2452E+00  0.7882E+01
  -2.646  0.2466E+00  0.7885E+01
  -2.636  0.2479E+00  0.7887E+01
  -2.626  0.2493E+00  0.7890E+01
  -2.616  0.2507E+00  0.7892E+01
  -2.606  0.2520E+00  0.7895E+01
  -2.596  0.2534E+00  0.7897E+01
  -2.586  0.2547E+00  0.7900E+01
  -2.576  0.2561E+00  0.7902E+01
  -2.566  0.2575E+00  0.7905E+01
  -2.556  0.2588E+00  0.7907E+01
  -2.546  0.2602E+00  0.7910E+01
  -2.536  0.2615E+00  0.7913E+01
  -2.526  0.2629E+00  0.7915E+01
  -2.516  0.1224E+00  0.7917E+01
  -2.506  0.1215E+00  0.7918E+01
  -2.496  0.1206E+00  0.7920E+01
  -2.486  0.1197E+00  0.7921E+01
  -2.476  0.1188E+00  0.7922E+01
  -2.466  0.1179E+00  0.7923E+01
  -2.456  0.1170E+00  0.7924E+01
  -2.446  0.1161E+00  0.7926E+01
  -2.436  0.1152E+00  0.7927E+01
  -2.426  0.1143E+00  0.7928E+01
  -2.416  0.1134E+00  0.7929E+01
  -2.406  0.1125E+00  0.7930E+01
  -2.396  0.1116E+00  0.7931E+01
  -2.386  0.1107E+00  0.7932E+01
  -2.376  0.1098E+00  0.7933E+01
  -2.366  0.1089E+00  0.7935E+01
  -2.356  0.1080E+00  0.7936E+01
  -2.346  0.1071E+00  0.7937E+01
  -2.336  0.1062E+00  0.7938E+01
  -2.326  0.1052E+00  0.7939E+01
  -2.316  0.1043E+00  0.7940E+01
  -2.306  0.1034E+00  0.7941E+01
  -2.296  0.1025E+00  0.7942E+01
  -2.286  0.1016E+00  0.7943E+01
  -2.276  0.1007E+00  0.7944E+01
  -2.266  0.9982E-01  0.7945E+01
  -2.256  0.9891E-01  0.7946E+01
  -2.246  0.9801E-01  0.7947E+01
  -2.236  0.9710E-01  0.7948E+01
  -2.226  0.9620E-01  0.7949E+01
  -2.216  0.9529E-01  0.7950E+01
  -2.206  0.9439E-01  0.7951E+01
  -2.196  0.9348E-01  0.7952E+01
  -2.186  0.9258E-01  0.7953E+01
  -2.176  0.9167E-01  0.7954E+01
  -2.166  0.9077E-01  0.7954E+01
  -2.156  0.8986E-01  0.7955E+01
  -2.146  0.8896E-01  0.7956E+01
  -2.136  0.8805E-01  0.7957E+01
  -2.126  0.8715E-01  0.7958E+01
  -2.116  0.8624E-01  0.7959E+01
  -2.106  0.8534E-01  0.7960E+01
  -2.096  0.8443E-01  0.7961E+01
  -2.086  0.8353E-01  0.7961E+01
  -2.076  0.8262E-01  0.7962E+01
  -2.066  0.8172E-01  0.7963E+01
  -2.056  0.8081E-01  0.7964E+01
  -2.046  0.7991E-01  0.7965E+01
  -2.036  0.7900E-01  0.7966E+01
  -2.026  0.7810E-01  0.7966E+01
  -2.016  0.7719E-01  0.7967E+01
  -2.006  0.7629E-01  0.7968E+01
  -1.996  0.7538E-01  0.7969E+01
  -1.986  0.7447E-01  0.7969E+01
  -1.976  0.7357E-01  0.7970E+01
  -1.966  0.7266E-01  0.7971E+01
  -1.956  0.7176E-01  0.7972E+01
  -1.946  0.7085E-01  0.7972E+01
  -1.936  0.6995E-01  0.7973E+01
  -1.926  0.6904E-01  0.7974E+01
  -1.916  0.6814E-01  0.7974E+01
  -1.906  0.6723E-01  0.7975E+01
  -1.896  0.6633E-01  0.7976E+01
  -1.886  0.6542E-01  0.7976E+01
  -1.876  0.6452E-01  0.7977E+01
  -1.866  0.6361E-01  0.7978E+01
  -1.856  0.6271E-01  0.7978E+01
  -1.846  0.6180E-01  0.7979E+01
  -1.836  0.6090E-01  0.7980E+01
  -1.826  0.5999E-01  0.7980E+01
  -1.816  0.5909E-01  0.7981E+01
  -1.806  0.5818E-01  0.7981E+01
  -1.796  0.5728E-01  0.7982E+01
  -1.786  0.5637E-01  0.7982E+01
  -1.776  0.5547E-01  0.7983E+01
  -1.766  0.5456E-01  0.7984E+01
  -1.756  0.5366E-01  0.7984E+01
  -1.746  0.5275E-01  0.7985E+01
  -1.736  0.5185E-01  0.7985E+01
  -1.726  0.5094E-01  0.7986E+01
  -1.716  0.5004E-01  0.7986E+01
  -1.706  0.4913E-01  0.7987E+01
  -1.696  0.4823E-01  0.7987E+01
  -1.686  0.4732E-01  0.7988E+01
  -1.676  0.4642E-01  0.7988E+01
  -1.666  0.4551E-01  0.7989E+01
  -1.656  0.4461E-01  0.7989E+01
  -1.646  0.4370E-01  0.7989E+01
  -1.636  0.4280E-01  0.7990E+01
  -1.626  0.4189E-01  0.7990E+01
  -1.616  0.4099E-01  0.7991E+01
  -1.606  0.4008E-01  0.7991E+01
  -1.596  0.3918E-01  0.7992E+01
  -1.586  0.3827E-01  0.7992E+01
  -1.576  0.3737E-01  0.7992E+01
  -1.566  0.3646E-01  0.7993E+01
  -1.556  0.3556E-01  0.7993E+01
  -1.546  0.3465E-01  0.7993E+01
  -1.536  0.3375E-01  0.7994E+01
  -1.526  0.3284E-01  0.7994E+01
  -1.516  0.3194E-01  0.7994E+01
  -1.506  0.3103E-01  0.7995E+01
  -1.496  0.3013E-01  0.7995E+01
  -1.486  0.2922E-01  0.7995E+01
  -1.476  0.2832E-01  0.7996E+01
  -1.466  0.2741E-01  0.7996E+01
  -1.456  0.2651E-01  0.7996E+01
  -1.446  0.2560E-01  0.7996E+01
  -1.436  0.2470E-01  0.7997E+01
  -1.426  0.2379E-01  0.7997E+01
  -1.416  0.2289E-01  0.7997E+01
  -1.406  0.2198E-01  0.7997E+01
  -1.396  0.2108E-01  0.7998E+01
  -1.386  0.2017E-01  0.7998E+01
  -1.376  0.1927E-01  0.7998E+01
  -1.366  0.1836E-01  0.7998E+01
  -1.356  0.1746E-01  0.7998E+01
  -1.346  0.1655E-01  0.7998E+01
  -1.336  0.1565E-01  0.7999E+01
  -1.326  0.1474E-01  0.7999E+01
  -1.316  0.1384E-01  0.7999E+01
  -1.306  0.1293E-01  0.7999E+01
  -1.296  0.1203E-01  0.7999E+01
  -1.286  0.1112E-01  0.7999E+01
  -1.276  0.1022E-01  0.7999E+01
  -1.266  0.9313E-02  0.8000E+01
  -1.256  0.8408E-02  0.8000E+01
  -1.246  0.7503E-02  0.8000E+01
  -1.236  0.6598E-02  0.8000E+01
  -1.226  0.5693E-02  0.8000E+01
  -1.216  0.4788E-02  0.8000E+01
  -1.206  0.3883E-02  0.8000E+01
  -1.196  0.2978E-02  0.8000E+01
  -1.186  0.2073E-02  0.8000E+01
  -1.176  0.1168E-02  0.8000E+01
  -1.166  0.2630E-03  0.8000E+01
  -1.156  0.7004E-03  0.8000E+01
  -1.146  0.1688E-02  0.8000E+01
  -1.136  0.2675E-02  0.8000E+01
  -1.126  0.3663E-02  0.8000E+01
  -1.116  0.4650E-02  0.8000E+01
  -1.106  0.5638E-02  0.8000E+01
  -1.096  0.6625E-02  0.8000E+01
  -1.086  0.7613E-02  0.8000E+01
  -1.076  0.8601E-02  0.8000E+01
  -1.066  0.9588E-02  0.8000E+01
  -1.056  0.1058E-01  0.8001E+01
  -1.046  0.1156E-01  0.8001E+01
  -1.036  0.1255E-01  0.8001E+01
  -1.026  0.1354E-01  0.8001E+01
  -1.016  0.1453E-01  0.8001E+01
  -1.006  0.1551E-01  0.8001E+01
  -0.996  0.1650E-01  0.8001E+01
  -0.986  0.1749E-01  0.8002E+01
  -0.976  0.1848E-01  0.8002E+01
  -0.966  0.1946E-01  0.8002E+01
  -0.956  0.2045E-01  0.8002E+01
  -0.946  0.2144E-01  0.8002E+01
  -0.936  0.2243E-01  0.8003E+01
  -0.926  0.2341E-01  0.8003E+01
  -0.916  0.2440E-01  0.8003E+01
  -0.906  0.2539E-01  0.8003E+01
  -0.896  0.2638E-01  0.8004E+01
  -0.886  0.2736E-01  0.8004E+01
  -0.876  0.2835E-01  0.8004E+01
  -0.866  0.2934E-01  0.8004E+01
  -0.856  0.3033E-01  0.8005E+01
  -0.846  0.3131E-01  0.8005E+01
  -0.836  0.3230E-01  0.8005E+01
  -0.826  0.3329E-01  0.8006E+01
  -0.816  0.3428E-01  0.8006E+01
  -0.806  0.3526E-01  0.8006E+01
  -0.796  0.3625E-01  0.8007E+01
  -0.786  0.3724E-01  0.8007E+01
  -0.776  0.3823E-01  0.8007E+01
  -0.766  0.3921E-01  0.8008E+01
  -0.756  0.4020E-01  0.8008E+01
  -0.746  0.4119E-01  0.8009E+01
  -0.736  0.4218E-01  0.8009E+01
  -0.726  0.4316E-01  0.8009E+01
  -0.716  0.4415E-01  0.8010E+01
  -0.706  0.4514E-01  0.8010E+01
  -0.696  0.4613E-01  0.8011E+01
  -0.686  0.4711E-01  0.8011E+01
  -0.676  0.4810E-01  0.8012E+01
  -0.666  0.4909E-01  0.8012E+01
  -0.656  0.5008E-01  0.8013E+01
  -0.646  0.5106E-01  0.8013E+01
  -0.636  0.5205E-01  0.8014E+01
  -0.626  0.5304E-01  0.8014E+01
  -0.616  0.5403E-01  0.8015E+01
  -0.606  0.5501E-01  0.8015E+01
  -0.596  0.5600E-01  0.8016E+01
  -0.586  0.5699E-01  0.8016E+01
  -0.576  0.5798E-01  0.8017E+01
  -0.566  0.5896E-01  0.8018E+01
  -0.556  0.5995E-01  0.8018E+01
  -0.546  0.6094E-01  0.8019E+01
  -0.536  0.6193E-01  0.8019E+01
  -0.526  0.6291E-01  0.8020E+01
  -0.516  0.6390E-01  0.8021E+01
  -0.506  0.6489E-01  0.8021E+01
  -0.496  0.6588E-01  0.8022E+01
  -0.486  0.6686E-01  0.8023E+01
  -0.476  0.6785E-01  0.8023E+01
  -0.466  0.6884E-01  0.8024E+01
  -0.456  0.6983E-01  0.8025E+01
  -0.446  0.7081E-01  0.8025E+01
  -0.436  0.7180E-01  0.8026E+01
  -0.426  0.7279E-01  0.8027E+01
  -0.416  0.7378E-01  0.8028E+01
  -0.406  0.7476E-01  0.8028E+01
  -0.396  0.7575E-01  0.8029E+01
  -0.386  0.7674E-01  0.8030E+01
  -0.376  0.7773E-01  0.8031E+01
  -0.366  0.7871E-01  0.8031E+01
  -0.356  0.7970E-01  0.8032E+01
  -0.346  0.8069E-01  0.8033E+01
  -0.336  0.8168E-01  0.8034E+01
  -0.326  0.8266E-01  0.8035E+01
  -0.316  0.8365E-01  0.8035E+01
  -0.306  0.8464E-01  0.8036E+01
  -0.296  0.8563E-01  0.8037E+01
  -0.286  0.8661E-01  0.8038E+01
  -0.276  0.8760E-01  0.8039E+01
  -0.266  0.8859E-01  0.8040E+01
  -0.256  0.8958E-01  0.8041E+01
  -0.246  0.9056E-01  0.8042E+01
  -0.236  0.9155E-01  0.8042E+01
  -0.226  0.9254E-01  0.8043E+01
  -0.216  0.9353E-01  0.8044E+01
  -0.206  0.9451E-01  0.8045E+01
  -0.196  0.9550E-01  0.8046E+01
  -0.186  0.9649E-01  0.8047E+01
  -0.176  0.9748E-01  0.8048E+01
  -0.166  0.9846E-01  0.8049E+01
  -0.156  0.9945E-01  0.8050E+01
  -0.146  0.1004E+00  0.8051E+01
  -0.136  0.1014E+00  0.8052E+01
  -0.126  0.1024E+00  0.8053E+01
  -0.116  0.1034E+00  0.8054E+01
  -0.106  0.1044E+00  0.8055E+01
  -0.096  0.1054E+00  0.8056E+01
  -0.086  0.1064E+00  0.8057E+01
  -0.076  0.1074E+00  0.8058E+01
  -0.066  0.1083E+00  0.8059E+01
  -0.056  0.1093E+00  0.8061E+01
  -0.046  0.1103E+00  0.8062E+01
  -0.036  0.1113E+00  0.8063E+01
  -0.026  0.1123E+00  0.8064E+01
  -0.016  0.1133E+00  0.8065E+01
  -0.006  0.1143E+00  0.8066E+01
   0.004  0.1153E+00  0.8067E+01
   0.014  0.1162E+00  0.8068E+01
   0.024  0.1172E+00  0.8070E+01
   0.034  0.1182E+00  0.8071E+01
   0.044  0.1192E+00  0.8072E+01
   0.054  0.1202E+00  0.8073E+01
   0.064  0.1212E+00  0.8074E+01
   0.074  0.1222E+00  0.8076E+01
   0.084  0.1232E+00  0.8077E+01
   0.094  0.1241E+00  0.8078E+01
   0.104  0.1251E+00  0.8079E+01
   0.114  0.1261E+00  0.8081E+01
   0.124  0.1271E+00  0.8082E+01
   0.134  0.1281E+00  0.8083E+01
   0.144  0.5734E+00  0.8088E+01
   0.154  0.5479E+00  0.8094E+01
   0.164  0.5224E+00  0.8099E+01
   0.174  0.4969E+00  0.8104E+01
   0.184  0.4714E+00  0.8109E+01
   0.194  0.4459E+00  0.8113E+01
   0.204  0.4203E+00  0.8118E+01
   0.214  0.3948E+00  0.8122E+01
   0.224  0.3693E+00  0.8126E+01
   0.234  0.3438E+00  0.8129E+01
   0.244  0.3183E+00  0.8133E+01
   0.254  0.2928E+00  0.8136E+01
   0.264  0.2673E+00  0.8138E+01
   0.274  0.2418E+00  0.8141E+01
   0.284  0.2163E+00  0.8143E+01
   0.294  0.2012E+00  0.8145E+01
   0.304  0.2068E+00  0.8147E+01
   0.314  0.2125E+00  0.8149E+01
   0.324  0.2181E+00  0.8152E+01
   0.334  0.2238E+00  0.8154E+01
   0.344  0.2294E+00  0.8156E+01
   0.354  0.2351E+00  0.8158E+01
   0.364  0.2407E+00  0.8161E+01
   0.374  0.2464E+00  0.8163E+01
   0.384  0.2520E+00  0.8166E+01
   0.394  0.2577E+00  0.8168E+01
   0.404  0.2633E+00  0.8171E+01
   0.414  0.2690E+00  0.8174E+01
   0.424  0.2746E+00  0.8176E+01
   0.434  0.2803E+00  0.8179E+01
   0.444  0.2859E+00  0.8182E+01
   0.454  0.2916E+00  0.8185E+01
   0.464  0.2972E+00  0.8188E+01
   0.474  0.3029E+00  0.8191E+01
   0.484  0.3085E+00  0.8194E+01
   0.494  0.3142E+00  0.8197E+01
   0.504  0.3198E+00  0.8200E+01
   0.514  0.3255E+00  0.8203E+01
   0.524  0.3418E+00  0.8207E+01
   0.534  0.3638E+00  0.8210E+01
   0.544  0.3859E+00  0.8214E+01
   0.554  0.4079E+00  0.8218E+01
   0.564  0.4300E+00  0.8222E+01
   0.574  0.4520E+00  0.8226E+01
   0.584  0.4741E+00  0.8231E+01
   0.594  0.4961E+00  0.8236E+01
   0.604  0.5182E+00  0.8241E+01
   0.614  0.5402E+00  0.8246E+01
   0.624  0.5623E+00  0.8252E+01
   0.634  0.5843E+00  0.8257E+01
   0.644  0.6064E+00  0.8263E+01
   0.654  0.6285E+00  0.8270E+01
   0.664  0.6505E+00  0.8276E+01
   0.674  0.6726E+00  0.8283E+01
   0.684  0.6946E+00  0.8289E+01
   0.694  0.7167E+00  0.8297E+01
   0.704  0.7387E+00  0.8304E+01
   0.714  0.7608E+00  0.8311E+01
   0.724  0.7828E+00  0.8319E+01
   0.734  0.8049E+00  0.8327E+01
   0.744  0.8269E+00  0.8335E+01
   0.754  0.8490E+00  0.8343E+01
   0.764  0.8710E+00  0.8352E+01
   0.774  0.8931E+00  0.8361E+01
   0.784  0.9151E+00  0.8370E+01
   0.794  0.4697E+00  0.8379E+01
   0.804  0.4672E+00  0.8384E+01
   0.814  0.4646E+00  0.8388E+01
   0.824  0.4621E+00  0.8393E+01
   0.834  0.4596E+00  0.8398E+01
   0.844  0.4570E+00  0.8402E+01
   0.854  0.4545E+00  0.8407E+01
   0.864  0.4520E+00  0.8411E+01
   0.874  0.4495E+00  0.8416E+01
   0.884  0.4469E+00  0.8420E+01
   0.894  0.4444E+00  0.8425E+01
   0.904  0.4419E+00  0.8429E+01
   0.914  0.4393E+00  0.8434E+01
   0.924  0.4368E+00  0.8438E+01
   0.934  0.4343E+00  0.8442E+01
   0.944  0.4317E+00  0.8447E+01
   0.954  0.4292E+00  0.8451E+01
   0.964  0.4267E+00  0.8455E+01
   0.974  0.4241E+00  0.8460E+01
   0.984  0.4216E+00  0.8464E+01
   0.994  0.4191E+00  0.8468E+01
   1.004  0.4165E+00  0.8472E+01
   1.014  0.4140E+00  0.8476E+01
   1.024  0.4115E+00  0.8480E+01
   1.034  0.4090E+00  0.8485E+01
   1.044  0.4064E+00  0.8489E+01
   1.054  0.4039E+00  0.8493E+01
   1.064  0.4014E+00  0.8497E+01
   1.074  0.3988E+00  0.8501E+01
   1.084  0.3963E+00  0.8505E+01
   1.094  0.3938E+00  0.8509E+01
   1.104  0.3912E+00  0.8513E+01
   1.114  0.3887E+00  0.8517E+01
   1.124  0.3862E+00  0.8520E+01
   1.134  0.3836E+00  0.8524E+01
   1.144  0.3811E+00  0.8528E+01
   1.154  0.3786E+00  0.8532E+01
   1.164  0.3761E+00  0.8536E+01
   1.174  0.3735E+00  0.8539E+01
   1.184  0.3710E+00  0.8543E+01
   1.194  0.3685E+00  0.8547E+01
   1.204  0.3659E+00  0.8550E+01
   1.214  0.3634E+00  0.8554E+01
   1.224  0.3609E+00  0.8558E+01
   1.234  0.3583E+00  0.8561E+01
   1.244  0.3558E+00  0.8565E+01
   1.254  0.3533E+00  0.8568E+01
   1.264  0.3507E+00  0.8572E+01
   1.274  0.3482E+00  0.8575E+01
   1.284  0.3457E+00  0.8579E+01
   1.294  0.3432E+00  0.8582E+01
   1.304  0.3406E+00  0.8586E+01
   1.314  0.3381E+00  0.8589E+01
   1.324  0.3356E+00  0.8593E+01
   1.334  0.3330E+00  0.8596E+01
   1.344  0.3305E+00  0.8599E+01
   1.354  0.3280E+00  0.8603E+01
   1.364  0.3257E+00  0.8606E+01
   1.374  0.3239E+00  0.8609E+01
   1.384  0.3220E+00  0.8612E+01
   1.394  0.3201E+00  0.8615E+01
   1.404  0.3182E+00  0.8619E+01
   1.414  0.3164E+00  0.8622E+01
   1.424  0.3145E+00  0.8625E+01
   1.434  0.3126E+00  0.8628E+01
   1.444  0.3108E+00  0.8631E+01
   1.454  0.3089E+00  0.8634E+01
   1.464  0.3070E+00  0.8637E+01
   1.474  0.3051E+00  0.8640E+01
   1.484  0.3033E+00  0.8644E+01
   1.494  0.3014E+00  0.8647E+01
   1.504  0.2995E+00  0.8650E+01
   1.514  0.2976E+00  0.8653E+01
   1.524  0.2958E+00  0.8655E+01
   1.534  0.2939E+00  0.8658E+01
   1.544  0.2920E+00  0.8661E+01
   1.554  0.2902E+00  0.8664E+01
   1.564  0.2883E+00  0.8667E+01
   1.574  0.2864E+00  0.8670E+01
   1.584  0.2845E+00  0.8673E+01
   1.594  0.2827E+00  0.8676E+01
   1.604  0.2808E+00  0.8679E+01
   1.614  0.2789E+00  0.8681E+01
   1.624  0.2775E+00  0.8684E+01
   1.634  0.2761E+00  0.8687E+01
   1.644  0.2748E+00  0.8690E+01
   1.654  0.2734E+00  0.8692E+01
   1.664  0.2727E+00  0.8695E+01
   1.674  0.2722E+00  0.8698E+01
   1.684  0.2718E+00  0.8701E+01
   1.694  0.2713E+00  0.8703E+01
   1.704  0.2709E+00  0.8706E+01
   1.714  0.2704E+00  0.8709E+01
   1.724  0.2700E+00  0.8711E+01
   1.734  0.2696E+00  0.8714E+01
   1.744  0.2691E+00  0.8717E+01
   1.754  0.2687E+00  0.8719E+01
   1.764  0.2682E+00  0.8722E+01
   1.774  0.2678E+00  0.8725E+01
   1.784  0.2673E+00  0.8728E+01
   1.794  0.2669E+00  0.8730E+01
   1.804  0.2664E+00  0.8733E+01
   1.814  0.2660E+00  0.8736E+01
   1.824  0.2655E+00  0.8738E+01
   1.834  0.2651E+00  0.8741E+01
   1.844  0.2646E+00  0.8743E+01
   1.854  0.2642E+00  0.8746E+01
   1.864  0.2637E+00  0.8749E+01
   1.874  0.2633E+00  0.8751E+01
   1.884  0.2628E+00  0.8754E+01
   1.894  0.2624E+00  0.8757E+01
   1.904  0.2619E+00  0.8759E+01
   1.914  0.2615E+00  0.8762E+01
   1.924  0.2610E+00  0.8765E+01
   1.934  0.2606E+00  0.8767E+01
   1.944  0.2601E+00  0.8770E+01
   1.954  0.2597E+00  0.8772E+01
   1.964  0.2592E+00  0.8775E+01
   1.974  0.2588E+00  0.8778E+01
   1.984  0.2583E+00  0.8780E+01
   1.994  0.2579E+00  0.8783E+01
   2.004  0.2574E+00  0.8785E+01
   2.014  0.2570E+00  0.8788E+01
   2.024  0.2565E+00  0.8790E+01
   2.034  0.2561E+00  0.8793E+01
   2.044  0.2608E+00  0.8796E+01
   2.054  0.2770E+00  0.8798E+01
   2.064  0.2932E+00  0.8801E+01
   2.074  0.3094E+00  0.8804E+01
   2.084  0.3256E+00  0.8807E+01
   2.094  0.3418E+00  0.8811E+01
   2.104  0.3580E+00  0.8814E+01
   2.114  0.3742E+00  0.8818E+01
   2.124  0.3904E+00  0.8822E+01
   2.134  0.4066E+00  0.8826E+01
   2.144  0.4228E+00  0.8830E+01
   2.154  0.4390E+00  0.8834E+01
   2.164  0.4552E+00  0.8838E+01
   2.174  0.4714E+00  0.8843E+01
   2.184  0.4876E+00  0.8848E+01
   2.194  0.5038E+00  0.8853E+01
   2.204  0.5200E+00  0.8858E+01
   2.214  0.5362E+00  0.8863E+01
   2.224  0.5524E+00  0.8869E+01
   2.234  0.5686E+00  0.8874E+01
   2.244  0.5848E+00  0.8880E+01
   2.254  0.6010E+00  0.8886E+01
   2.264  0.6172E+00  0.8892E+01
   2.274  0.4328E+00  0.8897E+01
   2.284  0.4337E+00  0.8901E+01
   2.294  0.4346E+00  0.8905E+01
   2.304  0.4356E+00  0.8910E+01
   2.314  0.4365E+00  0.8914E+01
   2.324  0.4375E+00  0.8918E+01
   2.334  0.4384E+00  0.8923E+01
   2.344  0.4393E+00  0.8927E+01
   2.354  0.4403E+00  0.8931E+01
   2.364  0.4412E+00  0.8936E+01
   2.374  0.4422E+00  0.8940E+01
   2.384  0.4431E+00  0.8945E+01
   2.394  0.4440E+00  0.8949E+01
   2.404  0.4450E+00  0.8954E+01
   2.414  0.4459E+00  0.8958E+01
   2.424  0.4469E+00  0.8963E+01
   2.434  0.4478E+00  0.8967E+01
   2.444  0.4487E+00  0.8971E+01
   2.454  0.4497E+00  0.8976E+01
   2.464  0.4506E+00  0.8980E+01
   2.474  0.4516E+00  0.8985E+01
   2.484  0.4525E+00  0.8989E+01
   2.494  0.4534E+00  0.8994E+01
   2.504  0.4544E+00  0.8999E+01
   2.514  0.4553E+00  0.9003E+01
   2.524  0.4563E+00  0.9008E+01
   2.534  0.4572E+00  0.9012E+01
   2.544  0.4581E+00  0.9017E+01
   2.554  0.4591E+00  0.9021E+01
   2.564  0.4600E+00  0.9026E+01
   2.574  0.4610E+00  0.9031E+01
   2.584  0.4620E+00  0.9035E+01
   2.594  0.4630E+00  0.9040E+01
   2.604  0.4640E+00  0.9044E+01
   2.614  0.4650E+00  0.9049E+01
   2.624  0.4660E+00  0.9054E+01
   2.634  0.4669E+00  0.9058E+01
   2.644  0.4679E+00  0.9063E+01
   2.654  0.4689E+00  0.9068E+01
   2.664  0.4699E+00  0.9072E+01
   2.674  0.4709E+00  0.9077E+01
   2.684  0.4719E+00  0.9082E+01
   2.694  0.4729E+00  0.9087E+01
   2.704  0.4739E+00  0.9091E+01
   2.714  0.4743E+00  0.9096E+01
   2.724  0.4722E+00  0.9101E+01
   2.734  0.4700E+00  0.9106E+01
   2.744  0.4679E+00  0.9110E+01
   2.754  0.4658E+00  0.9115E+01
   2.764  0.4636E+00  0.9120E+01
   2.774  0.4615E+00  0.9124E+01
   2.784  0.4594E+00  0.9129E+01
   2.794  0.4572E+00  0.9133E+01
   2.804  0.4551E+00  0.9138E+01
   2.814  0.4530E+00  0.9142E+01
   2.824  0.4508E+00  0.9147E+01
   2.834  0.4487E+00  0.9151E+01
   2.844  0.4465E+00  0.9156E+01
   2.854  0.4444E+00  0.9160E+01
   2.864  0.4423E+00  0.9165E+01
   2.874  0.4401E+00  0.9169E+01
   2.884  0.4380E+00  0.9174E+01
   2.894  0.4359E+00  0.9178E+01
   2.904  0.4337E+00  0.9182E+01
   2.914  0.4316E+00  0.9187E+01
   2.924  0.4295E+00  0.9191E+01
   2.934  0.4273E+00  0.9195E+01
   2.944  0.4270E+00  0.9200E+01
   2.954  0.4271E+00  0.9204E+01
   2.964  0.4272E+00  0.9208E+01
   2.974  0.4273E+00  0.9212E+01
   2.984  0.4274E+00  0.9217E+01
   2.994  0.4275E+00  0.9221E+01
   3.004  0.4276E+00  0.9225E+01
   3.014  0.4277E+00  0.9229E+01
   3.024  0.4278E+00  0.9234E+01
   3.034  0.4278E+00  0.9238E+01
   3.044  0.4279E+00  0.9242E+01
   3.054  0.4280E+00  0.9247E+01
   3.064  0.4281E+00  0.9251E+01
   3.074  0.4282E+00  0.9255E+01
   3.084  0.4283E+00  0.9259E+01
   3.094  0.4284E+00  0.9264E+01
   3.104  0.4285E+00  0.9268E+01
   3.114  0.4286E+00  0.9272E+01
   3.124  0.4286E+00  0.9277E+01
   3.134  0.4287E+00  0.9281E+01
   3.144  0.4288E+00  0.9285E+01
   3.154  0.4353E+00  0.9289E+01
   3.164  0.4520E+00  0.9294E+01
   3.174  0.4686E+00  0.9298E+01
   3.184  0.4853E+00  0.9303E+01
   3.194  0.5020E+00  0.9308E+01
   3.204  0.5187E+00  0.9313E+01
   3.214  0.5353E+00  0.9319E+01
   3.224  0.5520E+00  0.9324E+01
   3.234  0.5687E+00  0.9330E+01
   3.244  0.5853E+00  0.9335E+01
   3.254  0.6020E+00  0.9341E+01
   3.264  0.6187E+00  0.9347E+01
   3.274  0.6412E+00  0.9354E+01
   3.284  0.6582E+00  0.9360E+01
   3.294  0.6751E+00  0.9367E+01
   3.304  0.6920E+00  0.9374E+01
   3.314  0.7089E+00  0.9381E+01
   3.324  0.7258E+00  0.9388E+01
   3.334  0.7428E+00  0.9395E+01
   3.344  0.7597E+00  0.9403E+01
   3.354  0.7766E+00  0.9410E+01
   3.364  0.7935E+00  0.9418E+01
   3.374  0.8104E+00  0.9426E+01
   3.384  0.6271E+00  0.9433E+01
   3.394  0.6289E+00  0.9439E+01
   3.404  0.6306E+00  0.9445E+01
   3.414  0.6323E+00  0.9451E+01
   3.424  0.6341E+00  0.9458E+01
   3.434  0.6358E+00  0.9464E+01
   3.444  0.6375E+00  0.9471E+01
   3.454  0.6392E+00  0.9477E+01
   3.464  0.6410E+00  0.9483E+01
   3.474  0.6427E+00  0.9490E+01
   3.484  0.6444E+00  0.9496E+01
   3.494  0.6462E+00  0.9503E+01
   3.504  0.6479E+00  0.9509E+01
   3.514  0.6496E+00  0.9516E+01
   3.524  0.6514E+00  0.9522E+01
   3.534  0.6531E+00  0.9529E+01
   3.544  0.6548E+00  0.9535E+01
   3.554  0.6566E+00  0.9542E+01
   3.564  0.6583E+00  0.9548E+01
   3.574  0.6600E+00  0.9555E+01
   3.584  0.6617E+00  0.9561E+01
   3.594  0.6635E+00  0.9568E+01
   3.604  0.6652E+00  0.9575E+01
   3.614  0.6484E+00  0.9581E+01
   3.624  0.6502E+00  0.9588E+01
   3.634  0.6519E+00  0.9594E+01
   3.644  0.6536E+00  0.9601E+01
   3.654  0.6554E+00  0.9607E+01
   3.664  0.6571E+00  0.9614E+01
   3.674  0.6588E+00  0.9621E+01
   3.684  0.6606E+00  0.9627E+01
   3.694  0.6623E+00  0.9634E+01
   3.704  0.6641E+00  0.9640E+01
   3.714  0.6658E+00  0.9647E+01
   3.724  0.6675E+00  0.9654E+01
   3.734  0.6693E+00  0.9660E+01
   3.744  0.6710E+00  0.9667E+01
   3.754  0.6734E+00  0.9674E+01
   3.764  0.6799E+00  0.9681E+01
   3.774  0.6864E+00  0.9687E+01
   3.784  0.6929E+00  0.9694E+01
   3.794  0.6994E+00  0.9701E+01
   3.804  0.7059E+00  0.9708E+01
   3.814  0.7124E+00  0.9715E+01
   3.824  0.7183E+00  0.9723E+01
   3.834  0.7217E+00  0.9730E+01
   3.844  0.7251E+00  0.9737E+01
   3.854  0.7285E+00  0.9744E+01
   3.864  0.7319E+00  0.9752E+01
   3.874  0.7353E+00  0.9759E+01
   3.884  0.7457E+00  0.9766E+01
   3.894  0.7655E+00  0.9774E+01
   3.904  0.7854E+00  0.9782E+01
   3.914  0.8052E+00  0.9789E+01
   3.924  0.8250E+00  0.9798E+01
   3.934  0.8449E+00  0.9806E+01
   3.944  0.8647E+00  0.9815E+01
   3.954  0.8846E+00  0.9823E+01
   3.964  0.9044E+00  0.9832E+01
   3.974  0.9243E+00  0.9841E+01
   3.984  0.9441E+00  0.9851E+01
   3.994  0.9640E+00  0.9860E+01
   4.004  0.9838E+00  0.9870E+01
   4.014  0.1004E+01  0.9880E+01
   4.024  0.1024E+01  0.9890E+01
   4.034  0.1043E+01  0.9900E+01
   4.044  0.1063E+01  0.9911E+01
   4.054  0.1083E+01  0.9922E+01
   4.064  0.1096E+01  0.9933E+01
   4.074  0.1108E+01  0.9944E+01
   4.084  0.1120E+01  0.9955E+01
   4.094  0.1133E+01  0.9966E+01
   4.104  0.1145E+01  0.9977E+01
   4.114  0.9589E+00  0.9987E+01
   4.124  0.9562E+00  0.9997E+01
   4.134  0.9535E+00  0.1001E+02
   4.144  0.9509E+00  0.1002E+02
   4.154  0.9482E+00  0.1003E+02
   4.164  0.9455E+00  0.1003E+02
   4.174  0.9428E+00  0.1004E+02
   4.184  0.9402E+00  0.1005E+02
   4.194  0.9375E+00  0.1006E+02
   4.204  0.9348E+00  0.1007E+02
   4.214  0.9322E+00  0.1008E+02
   4.224  0.9295E+00  0.1009E+02
   4.234  0.9268E+00  0.1010E+02
   4.244  0.9241E+00  0.1011E+02
   4.254  0.9215E+00  0.1012E+02
   4.264  0.9188E+00  0.1013E+02
   4.274  0.9161E+00  0.1014E+02
   4.284  0.9135E+00  0.1015E+02
   4.294  0.9108E+00  0.1016E+02
   4.304  0.9081E+00  0.1016E+02
   4.314  0.9054E+00  0.1017E+02
   4.324  0.9028E+00  0.1018E+02
   4.334  0.9001E+00  0.1019E+02
   4.344  0.8974E+00  0.1020E+02
   4.354  0.8948E+00  0.1021E+02
   4.364  0.8921E+00  0.1022E+02
   4.374  0.8894E+00  0.1023E+02
   4.384  0.8867E+00  0.1024E+02
   4.394  0.8841E+00  0.1025E+02
   4.404  0.8814E+00  0.1025E+02
   4.414  0.8787E+00  0.1026E+02
   4.424  0.8761E+00  0.1027E+02
   4.434  0.8734E+00  0.1028E+02
   4.444  0.8707E+00  0.1029E+02
   4.454  0.8680E+00  0.1030E+02
   4.464  0.8654E+00  0.1031E+02
   4.474  0.8627E+00  0.1032E+02
   4.484  0.8600E+00  0.1032E+02
   4.494  0.8574E+00  0.1033E+02
   4.504  0.8547E+00  0.1034E+02
   4.514  0.8520E+00  0.1035E+02
   4.524  0.8493E+00  0.1036E+02
   4.534  0.8467E+00  0.1037E+02
   4.544  0.8440E+00  0.1037E+02
   4.554  0.8413E+00  0.1038E+02
   4.564  0.8361E+00  0.1039E+02
   4.574  0.8303E+00  0.1040E+02
   4.584  0.8246E+00  0.1041E+02
   4.594  0.8188E+00  0.1042E+02
   4.604  0.8130E+00  0.1042E+02
   4.614  0.8073E+00  0.1043E+02
   4.624  0.8015E+00  0.1044E+02
   4.634  0.7958E+00  0.1045E+02
   4.644  0.7900E+00  0.1046E+02
   4.654  0.7842E+00  0.1046E+02
   4.664  0.7785E+00  0.1047E+02
   4.674  0.7727E+00  0.1048E+02
   4.684  0.7669E+00  0.1049E+02
   4.694  0.7612E+00  0.1050E+02
   4.704  0.7554E+00  0.1050E+02
   4.714  0.8249E+00  0.1051E+02
   4.724  0.8395E+00  0.1052E+02
   4.734  0.7959E+00  0.1053E+02
   4.744  0.7523E+00  0.1053E+02
   4.754  0.7086E+00  0.1054E+02
   4.764  0.6650E+00  0.1055E+02
   4.774  0.6764E+00  0.1056E+02
   4.784  0.6996E+00  0.1056E+02
   4.794  0.7243E+00  0.1057E+02
   4.804  0.7490E+00  0.1058E+02
   4.814  0.7737E+00  0.1058E+02
   4.824  0.7984E+00  0.1059E+02
   4.834  0.8231E+00  0.1060E+02
   4.844  0.8478E+00  0.1061E+02
   4.854  0.8725E+00  0.1062E+02
   4.864  0.8972E+00  0.1063E+02
   4.874  0.9219E+00  0.1064E+02
   4.884  0.9466E+00  0.1064E+02
   4.894  0.9713E+00  0.1065E+02
   4.904  0.9960E+00  0.1066E+02
   4.914  0.1021E+01  0.1067E+02
   4.924  0.1045E+01  0.1068E+02
   4.934  0.1070E+01  0.1070E+02
   4.944  0.1095E+01  0.1071E+02
   4.954  0.1077E+01  0.1072E+02
   4.964  0.1058E+01  0.1073E+02
   4.974  0.1039E+01  0.1074E+02
   4.984  0.1020E+01  0.1075E+02
   4.994  0.1001E+01  0.1076E+02
   5.004  0.9823E+00  0.1077E+02
   5.014  0.9633E+00  0.1078E+02
   5.024  0.9444E+00  0.1079E+02
   5.034  0.9254E+00  0.1080E+02
   5.044  0.9064E+00  0.1081E+02
   5.054  0.8875E+00  0.1082E+02
   5.064  0.8685E+00  0.1082E+02
   5.074  0.8496E+00  0.1083E+02
   5.084  0.8306E+00  0.1084E+02
   5.094  0.8117E+00  0.1085E+02
   5.104  0.7927E+00  0.1086E+02
   5.114  0.7737E+00  0.1087E+02
   5.124  0.7548E+00  0.1087E+02
   5.134  0.7360E+00  0.1088E+02
   5.144  0.7228E+00  0.1089E+02
   5.154  0.7096E+00  0.1089E+02
   5.164  0.6963E+00  0.1090E+02
   5.174  0.6831E+00  0.1091E+02
   5.184  0.6698E+00  0.1092E+02
   5.194  0.6566E+00  0.1092E+02
   5.204  0.6434E+00  0.1093E+02
   5.214  0.6301E+00  0.1093E+02
   5.224  0.6193E+00  0.1094E+02
   5.234  0.6161E+00  0.1095E+02
   5.244  0.6129E+00  0.1095E+02
   5.254  0.6097E+00  0.1096E+02
   5.264  0.6065E+00  0.1097E+02
   5.274  0.6034E+00  0.1097E+02
   5.284  0.6002E+00  0.1098E+02
   5.294  0.5970E+00  0.1098E+02
   5.304  0.5938E+00  0.1099E+02
   5.314  0.5906E+00  0.1100E+02
   5.324  0.5874E+00  0.1100E+02
   5.334  0.5842E+00  0.1101E+02
   5.344  0.5810E+00  0.1101E+02
   5.354  0.5778E+00  0.1102E+02
   5.364  0.5746E+00  0.1102E+02
   5.374  0.5714E+00  0.1103E+02
   5.384  0.5683E+00  0.1104E+02
   5.394  0.5651E+00  0.1104E+02
   5.404  0.5619E+00  0.1105E+02
   5.414  0.5587E+00  0.1105E+02
   5.424  0.5555E+00  0.1106E+02
   5.434  0.5523E+00  0.1106E+02
   5.444  0.5491E+00  0.1107E+02
   5.454  0.5459E+00  0.1108E+02
   5.464  0.6850E+00  0.1108E+02
   5.474  0.6851E+00  0.1109E+02
   5.484  0.6853E+00  0.1110E+02
   5.494  0.6855E+00  0.1110E+02
   5.504  0.6857E+00  0.1111E+02
   5.514  0.6859E+00  0.1112E+02
   5.524  0.6861E+00  0.1112E+02
   5.534  0.6863E+00  0.1113E+02
   5.544  0.6865E+00  0.1114E+02
   5.554  0.6867E+00  0.1114E+02
   5.564  0.6869E+00  0.1115E+02
   5.574  0.6871E+00  0.1116E+02
   5.584  0.6873E+00  0.1116E+02
   5.594  0.6875E+00  0.1117E+02
   5.604  0.6884E+00  0.1118E+02
   5.614  0.6938E+00  0.1118E+02
   5.624  0.6991E+00  0.1119E+02
   5.634  0.7045E+00  0.1120E+02
   5.644  0.7098E+00  0.1121E+02
   5.654  0.7152E+00  0.1121E+02
   5.664  0.7205E+00  0.1122E+02
   5.674  0.7259E+00  0.1123E+02
   5.684  0.7312E+00  0.1123E+02
   5.694  0.7366E+00  0.1124E+02
   5.704  0.7419E+00  0.1125E+02
   5.714  0.7473E+00  0.1126E+02
   5.724  0.7526E+00  0.1126E+02
   5.734  0.7580E+00  0.1127E+02
   5.744  0.7633E+00  0.1128E+02
   5.754  0.7687E+00  0.1129E+02
   5.764  0.7740E+00  0.1129E+02
   5.774  0.7794E+00  0.1130E+02
   5.784  0.7847E+00  0.1131E+02
   5.794  0.7901E+00  0.1132E+02
   5.804  0.7955E+00  0.1133E+02
   5.814  0.8008E+00  0.1133E+02
   5.824  0.8003E+00  0.1134E+02
   5.834  0.7985E+00  0.1135E+02
   5.844  0.7968E+00  0.1136E+02
   5.854  0.7950E+00  0.1137E+02
   5.864  0.7933E+00  0.1137E+02
   5.874  0.7915E+00  0.1138E+02
   5.884  0.7898E+00  0.1139E+02
   5.894  0.7880E+00  0.1140E+02
   5.904  0.7851E+00  0.1141E+02
   5.914  0.7789E+00  0.1141E+02
   5.924  0.7727E+00  0.1142E+02
   5.934  0.7665E+00  0.1143E+02
   5.944  0.7603E+00  0.1144E+02
   5.954  0.7541E+00  0.1144E+02
   5.964  0.7479E+00  0.1145E+02
   5.974  0.7417E+00  0.1146E+02
   5.984  0.7355E+00  0.1147E+02
   5.994  0.7293E+00  0.1147E+02
   6.004  0.7231E+00  0.1148E+02
   6.014  0.7169E+00  0.1149E+02
   6.024  0.7107E+00  0.1150E+02
   6.034  0.7045E+00  0.1150E+02
   6.044  0.6983E+00  0.1151E+02
   6.054  0.6920E+00  0.1152E+02
   6.064  0.6858E+00  0.1152E+02
   6.074  0.6822E+00  0.1153E+02
   6.084  0.6825E+00  0.1154E+02
   6.094  0.6828E+00  0.1154E+02
   6.104  0.6831E+00  0.1155E+02
   6.114  0.6835E+00  0.1156E+02
   6.124  0.6842E+00  0.1156E+02
   6.134  0.6935E+00  0.1157E+02
   6.144  0.7028E+00  0.1158E+02
   6.154  0.7122E+00  0.1159E+02
   6.164  0.7215E+00  0.1159E+02
   6.174  0.7308E+00  0.1160E+02
   6.184  0.7401E+00  0.1161E+02
   6.194  0.7495E+00  0.1161E+02
   6.204  0.7588E+00  0.1162E+02
   6.214  0.7681E+00  0.1163E+02
   6.224  0.7774E+00  0.1164E+02
   6.234  0.7868E+00  0.1165E+02
   6.244  0.7961E+00  0.1165E+02
   6.254  0.8054E+00  0.1166E+02
   6.264  0.8206E+00  0.1167E+02
   6.274  0.8614E+00  0.1168E+02
   6.284  0.8707E+00  0.1169E+02
   6.294  0.9112E+00  0.1170E+02
   6.304  0.9517E+00  0.1170E+02
   6.314  0.9922E+00  0.1171E+02
   6.324  0.1033E+01  0.1172E+02
   6.334  0.1073E+01  0.1173E+02
   6.344  0.1094E+01  0.1175E+02
   6.354  0.1102E+01  0.1176E+02
   6.364  0.1110E+01  0.1177E+02
   6.374  0.1118E+01  0.1178E+02
   6.384  0.1126E+01  0.1179E+02
   6.394  0.1133E+01  0.1180E+02
   6.404  0.1141E+01  0.1181E+02
   6.414  0.1149E+01  0.1182E+02
   6.424  0.1157E+01  0.1184E+02
   6.434  0.1165E+01  0.1185E+02
   6.444  0.1173E+01  0.1186E+02
   6.454  0.1181E+01  0.1187E+02
   6.464  0.1188E+01  0.1188E+02
   6.474  0.1196E+01  0.1189E+02
   6.484  0.1204E+01  0.1191E+02
   6.494  0.1212E+01  0.1192E+02
   6.504  0.1220E+01  0.1193E+02
   6.514  0.1228E+01  0.1194E+02
   6.524  0.1236E+01  0.1196E+02
   6.534  0.1243E+01  0.1197E+02
   6.544  0.1251E+01  0.1198E+02
   6.554  0.1259E+01  0.1199E+02
   6.564  0.1267E+01  0.1201E+02
   6.574  0.1275E+01  0.1202E+02
   6.584  0.1283E+01  0.1203E+02
   6.594  0.1324E+01  0.1204E+02
   6.604  0.1368E+01  0.1206E+02
   6.614  0.1412E+01  0.1207E+02
   6.624  0.1456E+01  0.1209E+02
   6.634  0.1501E+01  0.1210E+02
   6.644  0.1545E+01  0.1212E+02
   6.654  0.1589E+01  0.1213E+02
   6.664  0.1633E+01  0.1215E+02
   6.674  0.1677E+01  0.1216E+02
   6.684  0.1721E+01  0.1218E+02
   6.694  0.1765E+01  0.1220E+02
   6.704  0.1805E+01  0.1222E+02
   6.714  0.1842E+01  0.1223E+02
   6.724  0.1879E+01  0.1225E+02
   6.734  0.1916E+01  0.1227E+02
   6.744  0.1953E+01  0.1229E+02
   6.754  0.1970E+01  0.1231E+02
   6.764  0.1986E+01  0.1233E+02
   6.774  0.2003E+01  0.1235E+02
   6.784  0.2019E+01  0.1237E+02
   6.794  0.2036E+01  0.1239E+02
   6.804  0.2011E+01  0.1241E+02
   6.814  0.1965E+01  0.1243E+02
   6.824  0.1919E+01  0.1245E+02
   6.834  0.1873E+01  0.1247E+02
   6.844  0.1827E+01  0.1249E+02
   6.854  0.1782E+01  0.1251E+02
   6.864  0.1736E+01  0.1252E+02
   6.874  0.1697E+01  0.1254E+02
   6.884  0.1668E+01  0.1256E+02
   6.894  0.1640E+01  0.1257E+02
   6.904  0.1611E+01  0.1259E+02
   6.914  0.1582E+01  0.1261E+02
   6.924  0.1554E+01  0.1262E+02
   6.934  0.1525E+01  0.1264E+02
   6.944  0.1439E+01  0.1265E+02
   6.954  0.1454E+01  0.1267E+02
   6.964  0.1468E+01  0.1268E+02
   6.974  0.1483E+01  0.1270E+02
   6.984  0.1498E+01  0.1271E+02
   6.994  0.1512E+01  0.1273E+02
   7.004  0.1465E+01  0.1274E+02
   7.014  0.1486E+01  0.1276E+02
   7.024  0.1507E+01  0.1277E+02
   7.034  0.1528E+01  0.1279E+02
   7.044  0.1549E+01  0.1280E+02
   7.054  0.1570E+01  0.1282E+02
   7.064  0.1591E+01  0.1283E+02
   7.074  0.1612E+01  0.1285E+02
   7.084  0.1633E+01  0.1286E+02
   7.094  0.1498E+01  0.1288E+02
   7.104  0.1554E+01  0.1290E+02
   7.114  0.1610E+01  0.1291E+02
   7.124  0.1666E+01  0.1293E+02
   7.134  0.1722E+01  0.1294E+02
   7.144  0.1778E+01  0.1296E+02
   7.154  0.1834E+01  0.1298E+02
   7.164  0.1868E+01  0.1300E+02
   7.174  0.1839E+01  0.1302E+02
   7.184  0.1809E+01  0.1304E+02
   7.194  0.1776E+01  0.1305E+02
   7.204  0.1742E+01  0.1307E+02
   7.214  0.1708E+01  0.1309E+02
   7.224  0.1674E+01  0.1311E+02
   7.234  0.1640E+01  0.1312E+02
   7.244  0.1606E+01  0.1314E+02
   7.254  0.1572E+01  0.1315E+02
   7.264  0.1538E+01  0.1317E+02
   7.274  0.1504E+01  0.1318E+02
   7.284  0.1470E+01  0.1320E+02
   7.294  0.1436E+01  0.1321E+02
   7.304  0.1402E+01  0.1323E+02
   7.314  0.1368E+01  0.1324E+02
   7.324  0.1333E+01  0.1326E+02
   7.334  0.1299E+01  0.1327E+02
   7.344  0.1268E+01  0.1328E+02
   7.354  0.1237E+01  0.1329E+02
   7.364  0.1205E+01  0.1331E+02
   7.374  0.1174E+01  0.1332E+02
   7.384  0.1142E+01  0.1333E+02
   7.394  0.1111E+01  0.1334E+02
   7.404  0.1079E+01  0.1335E+02
   7.414  0.1048E+01  0.1336E+02
   7.424  0.1016E+01  0.1337E+02
   7.434  0.9850E+00  0.1338E+02
   7.444  0.9536E+00  0.1339E+02
   7.454  0.9222E+00  0.1340E+02
   7.464  0.8907E+00  0.1341E+02
   7.474  0.8593E+00  0.1342E+02
   7.484  0.8278E+00  0.1343E+02
   7.494  0.8039E+00  0.1344E+02
   7.504  0.8020E+00  0.1344E+02
   7.514  0.8000E+00  0.1345E+02
   7.524  0.7981E+00  0.1346E+02
   7.534  0.7962E+00  0.1347E+02
   7.544  0.7943E+00  0.1348E+02
   7.554  0.7924E+00  0.1348E+02
   7.564  0.7905E+00  0.1349E+02
   7.574  0.7886E+00  0.1350E+02
   7.584  0.7867E+00  0.1351E+02
   7.594  0.7847E+00  0.1352E+02
   7.604  0.7828E+00  0.1352E+02
   7.614  0.7809E+00  0.1353E+02
   7.624  0.7795E+00  0.1354E+02
   7.634  0.7789E+00  0.1355E+02
   7.644  0.7783E+00  0.1355E+02
   7.654  0.7777E+00  0.1356E+02
   7.664  0.7771E+00  0.1357E+02
   7.674  0.7765E+00  0.1358E+02
   7.684  0.7759E+00  0.1359E+02
   7.694  0.7753E+00  0.1359E+02
   7.704  0.7747E+00  0.1360E+02
   7.714  0.7741E+00  0.1361E+02
   7.724  0.7735E+00  0.1362E+02
   7.734  0.7729E+00  0.1362E+02
   7.744  0.7723E+00  0.1363E+02
   7.754  0.7717E+00  0.1364E+02
   7.764  0.7711E+00  0.1365E+02
   7.774  0.7705E+00  0.1366E+02
   7.784  0.7699E+00  0.1366E+02
   7.794  0.7693E+00  0.1367E+02
   7.804  0.7687E+00  0.1368E+02
   7.814  0.7681E+00  0.1369E+02
   7.824  0.7676E+00  0.1369E+02
   7.834  0.7671E+00  0.1370E+02
   7.844  0.7666E+00  0.1371E+02
   7.854  0.7660E+00  0.1372E+02
   7.864  0.7655E+00  0.1372E+02
   7.874  0.7650E+00  0.1373E+02
   7.884  0.7644E+00  0.1374E+02
   7.894  0.7639E+00  0.1375E+02
   7.904  0.7634E+00  0.1376E+02
   7.914  0.7629E+00  0.1376E+02
   7.924  0.7623E+00  0.1377E+02
   7.934  0.7618E+00  0.1378E+02
   7.944  0.7613E+00  0.1379E+02
   7.954  0.7608E+00  0.1379E+02
   7.964  0.7602E+00  0.1380E+02
   7.974  0.7597E+00  0.1381E+02
   7.984  0.7592E+00  0.1382E+02
   7.994  0.7587E+00  0.1382E+02
   8.004  0.7581E+00  0.1383E+02
   8.014  0.7576E+00  0.1384E+02
   8.024  0.7571E+00  0.1385E+02
   8.034  0.7566E+00  0.1385E+02
   8.044  0.7568E+00  0.1386E+02
   8.054  0.7569E+00  0.1387E+02
   8.064  0.7571E+00  0.1388E+02
   8.074  0.7573E+00  0.1388E+02
   8.084  0.7575E+00  0.1389E+02
   8.094  0.7576E+00  0.1390E+02
   8.104  0.7578E+00  0.1391E+02
   8.114  0.7580E+00  0.1391E+02
   8.124  0.7582E+00  0.1392E+02
   8.134  0.7583E+00  0.1393E+02
   8.144  0.7585E+00  0.1394E+02
   8.154  0.7522E+00  0.1395E+02
   8.164  0.7522E+00  0.1395E+02
   8.174  0.7523E+00  0.1396E+02
   8.184  0.7523E+00  0.1397E+02
   8.194  0.7523E+00  0.1398E+02
   8.204  0.7524E+00  0.1398E+02
   8.214  0.7524E+00  0.1399E+02
   8.224  0.7524E+00  0.1400E+02
   8.234  0.7525E+00  0.1401E+02
   8.244  0.7525E+00  0.1401E+02
   8.254  0.7523E+00  0.1402E+02
   8.264  0.7520E+00  0.1403E+02
   8.274  0.7518E+00  0.1404E+02
   8.284  0.7516E+00  0.1404E+02
   8.294  0.7513E+00  0.1405E+02
   8.304  0.7511E+00  0.1406E+02
   8.314  0.7509E+00  0.1407E+02
   8.324  0.7506E+00  0.1407E+02
   8.334  0.7504E+00  0.1408E+02
   8.344  0.7502E+00  0.1409E+02
   8.354  0.7499E+00  0.1410E+02
   8.364  0.7497E+00  0.1410E+02
   8.374  0.7495E+00  0.1411E+02
   8.384  0.7492E+00  0.1412E+02
   8.394  0.7490E+00  0.1413E+02
   8.404  0.7488E+00  0.1413E+02
   8.414  0.7485E+00  0.1414E+02
   8.424  0.7483E+00  0.1415E+02
   8.434  0.7481E+00  0.1416E+02
   8.444  0.7479E+00  0.1416E+02
   8.454  0.7476E+00  0.1417E+02
   8.464  0.7474E+00  0.1418E+02
   8.474  0.7472E+00  0.1419E+02
   8.484  0.7469E+00  0.1419E+02
   8.494  0.7467E+00  0.1420E+02
   8.504  0.7465E+00  0.1421E+02
   8.514  0.7462E+00  0.1422E+02
   8.524  0.7460E+00  0.1422E+02
   8.534  0.7458E+00  0.1423E+02
   8.544  0.7455E+00  0.1424E+02
   8.554  0.7453E+00  0.1424E+02
   8.564  0.7451E+00  0.1425E+02
   8.574  0.7448E+00  0.1426E+02
   8.584  0.7446E+00  0.1427E+02
   8.594  0.7444E+00  0.1427E+02
   8.604  0.7441E+00  0.1428E+02
   8.614  0.7439E+00  0.1429E+02
   8.624  0.7437E+00  0.1430E+02
   8.634  0.7434E+00  0.1430E+02
   8.644  0.7432E+00  0.1431E+02
   8.654  0.7430E+00  0.1432E+02
   8.664  0.7427E+00  0.1433E+02
   8.674  0.7425E+00  0.1433E+02
   8.684  0.7423E+00  0.1434E+02
   8.694  0.7420E+00  0.1435E+02
   8.704  0.7418E+00  0.1436E+02
   8.714  0.7416E+00  0.1436E+02
   8.724  0.7417E+00  0.1437E+02
   8.734  0.7419E+00  0.1438E+02
   8.744  0.7421E+00  0.1439E+02
   8.754  0.7423E+00  0.1439E+02
   8.764  0.7425E+00  0.1440E+02
   8.774  0.7427E+00  0.1441E+02
   8.784  0.7429E+00  0.1442E+02
   8.794  0.7431E+00  0.1442E+02
   8.804  0.7429E+00  0.1443E+02
   8.814  0.7428E+00  0.1444E+02
   8.824  0.7426E+00  0.1445E+02
   8.834  0.7425E+00  0.1445E+02
   8.844  0.7423E+00  0.1446E+02
   8.854  0.7422E+00  0.1447E+02
   8.864  0.7438E+00  0.1448E+02
   8.874  0.7505E+00  0.1448E+02
   8.884  0.7571E+00  0.1449E+02
   8.894  0.7637E+00  0.1450E+02
   8.904  0.7686E+00  0.1451E+02
   8.914  0.7722E+00  0.1451E+02
   8.924  0.9116E+00  0.1452E+02
   8.934  0.9092E+00  0.1453E+02
   8.944  0.9067E+00  0.1454E+02
   8.954  0.9042E+00  0.1455E+02
   8.964  0.9017E+00  0.1456E+02
   8.974  0.8992E+00  0.1457E+02
   8.984  0.8968E+00  0.1458E+02
   8.994  0.8943E+00  0.1458E+02
   9.004  0.8918E+00  0.1459E+02
   9.014  0.8893E+00  0.1460E+02
   9.024  0.8868E+00  0.1461E+02
   9.034  0.8844E+00  0.1462E+02
   9.044  0.8819E+00  0.1463E+02
   9.054  0.8794E+00  0.1464E+02
   9.064  0.8769E+00  0.1465E+02
   9.074  0.8745E+00  0.1465E+02
   9.084  0.8720E+00  0.1466E+02
   9.094  0.8695E+00  0.1467E+02
   9.104  0.8670E+00  0.1468E+02
   9.114  0.8645E+00  0.1469E+02
   9.124  0.8621E+00  0.1470E+02
   9.134  0.8596E+00  0.1471E+02
   9.144  0.8571E+00  0.1472E+02
   9.154  0.8546E+00  0.1472E+02
   9.164  0.8521E+00  0.1473E+02
   9.174  0.8505E+00  0.1474E+02
   9.184  0.8490E+00  0.1475E+02
   9.194  0.8474E+00  0.1476E+02
   9.204  0.8459E+00  0.1477E+02
   9.214  0.8443E+00  0.1478E+02
   9.224  0.8427E+00  0.1478E+02
   9.234  0.8412E+00  0.1479E+02
   9.244  0.8396E+00  0.1480E+02
   9.254  0.8380E+00  0.1481E+02
   9.264  0.8365E+00  0.1482E+02
   9.274  0.8349E+00  0.1483E+02
   9.284  0.8333E+00  0.1483E+02
   9.294  0.8318E+00  0.1484E+02
   9.304  0.8302E+00  0.1485E+02
   9.314  0.8286E+00  0.1486E+02
   9.324  0.8271E+00  0.1487E+02
   9.334  0.8255E+00  0.1488E+02
   9.344  0.8239E+00  0.1488E+02
   9.354  0.8224E+00  0.1489E+02
   9.364  0.8208E+00  0.1490E+02
   9.374  0.8193E+00  0.1491E+02
   9.384  0.8177E+00  0.1492E+02
   9.394  0.8161E+00  0.1492E+02
   9.404  0.8146E+00  0.1493E+02
   9.414  0.8130E+00  0.1494E+02
   9.424  0.8114E+00  0.1495E+02
   9.434  0.8099E+00  0.1496E+02
   9.444  0.8083E+00  0.1497E+02
   9.454  0.8067E+00  0.1497E+02
   9.464  0.8052E+00  0.1498E+02
   9.474  0.8108E+00  0.1499E+02
   9.484  0.8330E+00  0.1500E+02
   9.494  0.8552E+00  0.1501E+02
   9.504  0.8774E+00  0.1501E+02
   9.514  0.8995E+00  0.1502E+02
   9.524  0.9217E+00  0.1503E+02
   9.534  0.9439E+00  0.1504E+02
   9.544  0.9661E+00  0.1505E+02
   9.554  0.9882E+00  0.1506E+02
   9.564  0.1010E+01  0.1507E+02
   9.574  0.1033E+01  0.1508E+02
   9.584  0.1055E+01  0.1509E+02
   9.594  0.1077E+01  0.1510E+02
   9.604  0.1099E+01  0.1511E+02
   9.614  0.1121E+01  0.1512E+02
   9.624  0.1143E+01  0.1514E+02
   9.634  0.1166E+01  0.1515E+02
   9.644  0.1188E+01  0.1516E+02
   9.654  0.1210E+01  0.1517E+02
   9.664  0.1232E+01  0.1518E+02
   9.674  0.1254E+01  0.1520E+02
   9.684  0.1276E+01  0.1521E+02
   9.694  0.1299E+01  0.1522E+02
   9.704  0.1321E+01  0.1523E+02
   9.714  0.1343E+01  0.1525E+02
   9.724  0.1365E+01  0.1526E+02
   9.734  0.1387E+01  0.1528E+02
   9.744  0.6244E+00  0.1528E+02
   9.754  0.6235E+00  0.1529E+02
   9.764  0.6225E+00  0.1530E+02
   9.774  0.6216E+00  0.1530E+02
   9.784  0.6206E+00  0.1531E+02
   9.794  0.6197E+00  0.1531E+02
   9.804  0.6187E+00  0.1532E+02
   9.814  0.6178E+00  0.1533E+02
   9.824  0.6168E+00  0.1533E+02
   9.834  0.6159E+00  0.1534E+02
   9.844  0.6149E+00  0.1534E+02
   9.854  0.6140E+00  0.1535E+02
   9.864  0.6130E+00  0.1536E+02
   9.874  0.6121E+00  0.1536E+02
   9.884  0.6111E+00  0.1537E+02
   9.894  0.6102E+00  0.1538E+02
   9.904  0.6092E+00  0.1538E+02
   9.914  0.6083E+00  0.1539E+02
   9.924  0.6073E+00  0.1539E+02
   9.934  0.6064E+00  0.1540E+02
   9.944  0.1313E+01  0.1541E+02
   9.954  0.1258E+01  0.1542E+02
   9.964  0.1203E+01  0.1543E+02
   9.974  0.1149E+01  0.1545E+02
   9.984  0.1094E+01  0.1546E+02
   9.994  0.1039E+01  0.1547E+02
  10.004  0.9840E+00  0.1548E+02
  10.014  0.9292E+00  0.1549E+02
  10.024  0.8743E+00  0.1550E+02
  10.034  0.8195E+00  0.1551E+02
  10.044  0.7647E+00  0.1551E+02
  10.054  0.7098E+00  0.1552E+02
  10.064  0.6550E+00  0.1553E+02
  10.074  0.6001E+00  0.1553E+02
  10.084  0.5598E+00  0.1554E+02
  10.094  0.5547E+00  0.1555E+02
  10.104  0.5497E+00  0.1555E+02
  10.114  0.5447E+00  0.1556E+02
  10.124  0.5396E+00  0.1556E+02
  10.134  0.5346E+00  0.1557E+02
  10.144  0.8074E+00  0.1557E+02
  10.154  0.7911E+00  0.1558E+02
  10.164  0.7747E+00  0.1559E+02
  10.174  0.7584E+00  0.1560E+02
  10.184  0.7420E+00  0.1561E+02
  10.194  0.7257E+00  0.1561E+02
  10.204  0.7093E+00  0.1562E+02
  10.214  0.6930E+00  0.1563E+02
  10.224  0.6767E+00  0.1563E+02
  10.234  0.6603E+00  0.1564E+02
  10.244  0.6440E+00  0.1565E+02
  10.254  0.6276E+00  0.1565E+02
  10.264  0.6113E+00  0.1566E+02
  10.274  0.5949E+00  0.1567E+02
  10.284  0.5786E+00  0.1567E+02
  10.294  0.5622E+00  0.1568E+02
  10.304  0.5459E+00  0.1568E+02
  10.314  0.5296E+00  0.1569E+02
  10.324  0.5132E+00  0.1569E+02
  10.334  0.4969E+00  0.1570E+02
  10.344  0.4805E+00  0.1570E+02
  10.354  0.4642E+00  0.1571E+02
  10.364  0.4478E+00  0.1571E+02
  10.374  0.4315E+00  0.1572E+02
  10.384  0.4151E+00  0.1572E+02
  10.394  0.3988E+00  0.1572E+02
  10.404  0.3825E+00  0.1573E+02
  10.414  0.3661E+00  0.1573E+02
  10.424  0.3498E+00  0.1574E+02
  10.434  0.3334E+00  0.1574E+02
  10.444  0.3171E+00  0.1574E+02
  10.454  0.3007E+00  0.1575E+02
  10.464  0.2844E+00  0.1575E+02
  10.474  0.2680E+00  0.1575E+02
  10.484  0.2596E+00  0.1575E+02
  10.494  0.2547E+00  0.1576E+02
  10.504  0.2516E+00  0.1576E+02
  10.514  0.2520E+00  0.1576E+02
  10.524  0.2524E+00  0.1576E+02
  10.534  0.2528E+00  0.1577E+02
  10.544  0.2531E+00  0.1577E+02
  10.554  0.2535E+00  0.1577E+02
  10.564  0.2539E+00  0.1577E+02
  10.574  0.2543E+00  0.1578E+02
  10.584  0.2547E+00  0.1578E+02
  10.594  0.2551E+00  0.1578E+02
  10.604  0.2554E+00  0.1578E+02
  10.614  0.2558E+00  0.1579E+02
  10.624  0.2562E+00  0.1579E+02
  10.634  0.2566E+00  0.1579E+02
  10.644  0.2570E+00  0.1579E+02
  10.654  0.2573E+00  0.1580E+02
  10.664  0.2577E+00  0.1580E+02
  10.674  0.2581E+00  0.1580E+02
  10.684  0.2585E+00  0.1581E+02
  10.694  0.2589E+00  0.1581E+02
  10.704  0.2593E+00  0.1581E+02
  10.714  0.2596E+00  0.1581E+02
  10.724  0.2600E+00  0.1582E+02
  10.734  0.2604E+00  0.1582E+02
  10.744  0.2608E+00  0.1582E+02
  10.754  0.2612E+00  0.1582E+02
  10.764  0.2615E+00  0.1583E+02
  10.774  0.2619E+00  0.1583E+02
  10.784  0.2623E+00  0.1583E+02
  10.794  0.2627E+00  0.1583E+02
  10.804  0.2631E+00  0.1584E+02
  10.814  0.2635E+00  0.1584E+02
  10.824  0.2638E+00  0.1584E+02
  10.834  0.2642E+00  0.1584E+02
  10.844  0.2646E+00  0.1585E+02
  10.854  0.2650E+00  0.1585E+02
  10.864  0.2654E+00  0.1585E+02
  10.874  0.2657E+00  0.1585E+02
  10.884  0.2661E+00  0.1586E+02
  10.894  0.2665E+00  0.1586E+02
  10.904  0.2669E+00  0.1586E+02
  10.914  0.2673E+00  0.1587E+02
  10.924  0.2677E+00  0.1587E+02
  10.934  0.2680E+00  0.1587E+02
  10.944  0.2684E+00  0.1587E+02
  10.954  0.2688E+00  0.1588E+02
  10.964  0.2692E+00  0.1588E+02
  10.974  0.2696E+00  0.1588E+02
  10.984  0.2699E+00  0.1588E+02
  10.994  0.2703E+00  0.1589E+02
  11.004  0.2707E+00  0.1589E+02
  11.014  0.2711E+00  0.1589E+02
  11.024  0.2715E+00  0.1590E+02
  11.034  0.2719E+00  0.1590E+02
  11.044  0.2722E+00  0.1590E+02
  11.054  0.2898E+00  0.1590E+02
  11.064  0.2854E+00  0.1591E+02
  11.074  0.2811E+00  0.1591E+02
  11.084  0.2767E+00  0.1591E+02
  11.094  0.2724E+00  0.1591E+02
  11.104  0.2680E+00  0.1592E+02
  11.114  0.2637E+00  0.1592E+02
  11.124  0.2593E+00  0.1592E+02
  11.134  0.2550E+00  0.1593E+02
  11.144  0.2506E+00  0.1593E+02
  11.154  0.2463E+00  0.1593E+02
  11.164  0.2419E+00  0.1593E+02
  11.174  0.2376E+00  0.1594E+02
  11.184  0.2332E+00  0.1594E+02
  11.194  0.2288E+00  0.1594E+02
  11.204  0.2245E+00  0.1594E+02
  11.214  0.2201E+00  0.1594E+02
  11.224  0.2158E+00  0.1595E+02
  11.234  0.2114E+00  0.1595E+02
  11.244  0.2071E+00  0.1595E+02
  11.254  0.2027E+00  0.1595E+02
  11.264  0.1984E+00  0.1595E+02
  11.274  0.1940E+00  0.1596E+02
  11.284  0.1897E+00  0.1596E+02
  11.294  0.1853E+00  0.1596E+02
  11.304  0.1810E+00  0.1596E+02
  11.314  0.1766E+00  0.1596E+02
  11.324  0.1723E+00  0.1597E+02
  11.334  0.1679E+00  0.1597E+02
  11.344  0.1635E+00  0.1597E+02
  11.354  0.1592E+00  0.1597E+02
  11.364  0.1548E+00  0.1597E+02
  11.374  0.1505E+00  0.1597E+02
  11.384  0.1461E+00  0.1598E+02
  11.394  0.1418E+00  0.1598E+02
  11.404  0.1374E+00  0.1598E+02
  11.414  0.1331E+00  0.1598E+02
  11.424  0.1287E+00  0.1598E+02
  11.434  0.1244E+00  0.1598E+02
  11.444  0.1200E+00  0.1598E+02
  11.454  0.1157E+00  0.1598E+02
  11.464  0.1113E+00  0.1599E+02
  11.474  0.1070E+00  0.1599E+02
  11.484  0.1026E+00  0.1599E+02
  11.494  0.9824E-01  0.1599E+02
  11.504  0.9389E-01  0.1599E+02
  11.514  0.8954E-01  0.1599E+02
  11.524  0.8518E-01  0.1599E+02
  11.534  0.8083E-01  0.1599E+02
  11.544  0.7648E-01  0.1599E+02
  11.554  0.7212E-01  0.1599E+02
  11.564  0.6777E-01  0.1599E+02
  11.574  0.6342E-01  0.1600E+02
  11.584  0.5906E-01  0.1600E+02
  11.594  0.5471E-01  0.1600E+02
  11.604  0.5036E-01  0.1600E+02
  11.614  0.4600E-01  0.1600E+02
  11.624  0.4165E-01  0.1600E+02
  11.634  0.3730E-01  0.1600E+02
  11.644  0.3294E-01  0.1600E+02
  11.654  0.2859E-01  0.1600E+02
  11.664  0.2424E-01  0.1600E+02
  11.674  0.1988E-01  0.1600E+02
  11.684  0.1553E-01  0.1600E+02
  11.694  0.1117E-01  0.1600E+02
  11.704  0.6821E-02  0.1600E+02
  11.714  0.2468E-02  0.1600E+02
